Data File Name,2100 expert_High Sensitivity DNA Assay_DE34904066_2015-05-22_14-28-17.xad
Data File Path,C:\Program Files (x86)\Agilent\2100 bioanalyzer\2100 expert\Data\2015-05-22
Date Created,"Friday, May 22, 2015 6:28:16 PM"
Date Last Modified,"Wednesday, May 27, 2015 3:00:00 PM"
Version Created,B.02.08.SI648
Version Last Modified,B.02.08.SI648
 
Assay Name,High Sensitivity DNA
Assay Path,C:\Program Files (x86)\Agilent\2100 bioanalyzer\2100 expert\assays\dsDNA
Assay Title,High Sensitivity DNA Assay
Assay Version,1.03
 
Number of Samples Run,11
 
Sample Name,Ladder
Number of Events,2121
 
Time,Value
32,-0.2194186
32.05,1.403761E-02
32.1,0.1834851
32.15,0.1505241
32.2,7.548301E-03
32.25,-0.1729337
32.3,-0.1853444
32.35,-0.126186
32.4,-9.38132E-03
32.45,-5.273049E-02
32.5,-5.168524E-02
32.55,-5.924256E-02
32.6,-0.1486717
32.65,-0.2955638
32.7,-0.2992018
32.75,-0.394414
32.8,-0.5305695
32.85,-0.4447974
32.9,-0.3146482
32.95,-0.2845621
33,-0.2851322
33.05,-0.2199154
33.1,-0.262046
33.15,-0.2927166
33.2,-0.3337099
33.25,-0.3109904
33.3,-0.3721659
33.35,-0.3829467
33.4,-0.3476591
33.45,-0.2852614
33.5,-0.2817194
33.55,-0.2273103
33.6,-0.373796
33.65,-0.4174983
33.7,-0.5496855
33.75,-0.7225958
33.8,-0.9081783
33.85,-1.03634
33.9,-1.107393
33.95,-1.252456
34,-1.274758
34.05,-1.218677
34.1,-1.164759
34.15,-1.098675
34.2,-0.920025
34.25,-0.9697037
34.3,-1.019749
34.35,-1.192117
34.4,-1.004636
34.45,-0.8932623
34.5,-0.7318646
34.55,-0.6983101
34.6,-0.7511367
34.65,-0.838507
34.7,-0.8796577
34.75,-0.918011
34.8,-0.9070079
34.85,-1.0278
34.9,-1.152261
34.95,-1.180076
35,-1.151052
35.05,-1.094224
35.1,-1.070067
35.15,-1.03315
35.2,-1.052909
35.25,-1.168826
35.3,-1.29022
35.35,-1.319074
35.4,-1.443796
35.45,-1.457287
35.5,-1.498257
35.55,-1.304585
35.6,-1.239407
35.65,-1.252303
35.7,-1.238391
35.75,-1.138697
35.8,-1.086257
35.85,-1.046312
35.9,-0.9791012
35.95,-0.9430123
36,-1.011627
36.05,-1.113085
36.1,-1.061522
36.15,-0.9911084
36.2,-1.003235
36.25,-1.054023
36.3,-1.045722
36.35,-1.150092
36.4,-1.291233
36.45,-1.290904
36.5,-1.235659
36.55,-1.422604
36.6,-1.249029
36.65,-1.237029
36.7,-1.104928
36.75,-1.199975
36.8,-1.197326
36.85,-1.299155
36.9,-1.322318
36.95,-1.244669
37,-1.113315
37.05,-1.081491
37.1,-1.014497
37.15,-1.045668
37.2,-1.141536
37.25,-1.227765
37.3,-1.285627
37.35,-1.289763
37.4,-1.41419
37.45,-1.380896
37.5,-1.387806
37.55,-1.41891
37.6,-1.589187
37.65,-1.623204
37.7,-1.562247
37.75,-1.69393
37.8,-1.777426
37.85,-1.715687
37.9,-1.730821
37.95,-1.741499
38,-1.636406
38.05,-1.467215
38.1,-1.474599
38.15,-1.485079
38.2,-1.481383
38.25,-1.491421
38.3,-1.511885
38.35,-1.535684
38.4,-1.512814
38.45,-1.520286
38.5,-1.427837
38.55,-1.443669
38.6,-1.302749
38.65,-1.309994
38.7,-1.331995
38.75,-1.508226
38.8,-1.546924
38.85,-1.575192
38.9,-1.590413
38.95,-1.615058
39,-1.529711
39.05,-1.55628
39.1,-1.659115
39.15,-1.746054
39.2,-1.773673
39.25,-1.829875
39.3,-1.878894
39.35,-1.832324
39.4,-1.77607
39.45,-1.680888
39.5,-1.640667
39.55,-1.595113
39.6,-1.585688
39.65,-1.497581
39.7,-1.466269
39.75,-1.297916
39.8,-1.308172
39.85,-1.348016
39.9,-1.496294
39.95,-1.491254
40,-1.547931
40.05,-1.593994
40.1,-1.611976
40.15,-1.475524
40.2,-1.184319
40.25,-0.3473778
40.3,1.647426
40.35,5.78242
40.4,12.98047
40.45,23.98462
40.5,39.28584
40.55,57.41782
40.6,75.68127
40.65,90.30789
40.7,97.60338
40.75,95.29906
40.8,83.94359
40.85,66.48769
40.9,47.29103
40.95,29.83003
41,16.79685
41.05,8.297871
41.1,3.634259
41.15,1.478731
41.2,0.7141433
41.25,0.3540776
41.3,8.876953E-02
41.35,-0.1446764
41.4,-0.3367957
41.45,-0.4937698
41.5,-0.5892657
41.55,-0.7262625
41.6,-0.9512688
41.65,-1.07067
41.7,-1.182642
41.75,-1.112509
41.8,-1.035687
41.85,-0.9792224
41.9,-0.9749305
41.95,-1.233039
42,-1.339381
42.05,-1.375839
42.1,-1.398479
42.15,-1.353483
42.2,-1.351619
42.25,-1.249331
42.3,-1.204175
42.35,-1.259371
42.4,-1.305359
42.45,-1.202634
42.5,-0.8696193
42.55,0.2196205
42.6,2.929657
42.65,8.671657
42.7,19.14931
42.75,35.4816
42.8,57.402
42.85,82.59533
42.9,106.7123
42.95,124.1982
43,129.8313
43.05,121.154
43.1,100.7499
43.15,74.47681
43.2,49.13163
43.25,28.87278
43.3,15.38212
43.35,8.095171
43.4,4.71945
43.45,3.247662
43.5,2.545672
43.55,2.189986
43.6,1.715754
43.65,1.256144
43.7,1.118934
43.75,1.144376
43.8,1.09569
43.85,0.9911103
43.9,0.7629341
43.95,0.5645478
44,0.3190134
44.05,0.2584491
44.1,8.640824E-02
44.15,0.0167659
44.2,-0.2889814
44.25,-0.3310056
44.3,-0.4245706
44.35,-0.3858377
44.4,-0.4589957
44.45,-0.6618267
44.5,-0.8510603
44.55,-0.8357674
44.6,-0.7825028
44.65,-0.735571
44.7,-0.6969855
44.75,-0.7360982
44.8,-0.9544369
44.85,-1.107456
44.9,-1.08813
44.95,-1.179702
45,-1.230199
45.05,-1.261505
45.1,-1.26952
45.15,-1.363181
45.2,-1.522278
45.25,-1.569661
45.3,-1.537843
45.35,-1.65652
45.4,-1.741606
45.45,-1.826839
45.5,-1.832705
45.55,-1.806716
45.6,-1.734243
45.65,-1.595173
45.7,-1.553707
45.75,-1.527084
45.8,-1.474371
45.85,-1.436238
45.9,-1.471974
45.95,-1.632364
46,-1.775574
46.05,-1.70133
46.1,-1.617006
46.15,-1.42634
46.2,-1.433145
46.25,-1.412716
46.3,-1.613198
46.35,-1.745048
46.4,-1.864719
46.45,-1.829255
46.5,-1.890313
46.55,-1.813075
46.6,-1.770916
46.65,-1.777458
46.7,-1.871405
46.75,-2.033212
46.8,-2.054684
46.85,-2.029352
46.9,-2.012868
46.95,-2.021824
47,-1.964838
47.05,-1.837525
47.1,-1.775267
47.15,-1.790287
47.2,-1.75392
47.25,-1.869704
47.3,-1.87439
47.35,-1.92757
47.4,-1.850417
47.45,-1.764834
47.5,-1.854147
47.55,-1.817162
47.6,-1.735372
47.65,-1.824462
47.7,-1.936111
47.75,-2.013454
47.8,-1.965029
47.85,-2.01888
47.9,-2.185446
47.95,-2.262409
48,-2.218699
48.05,-1.682696
48.1,0.1318902
48.15,5.345458
48.2,15.86187
48.25,34.40889
48.3,61.65754
48.35,95.59336
48.4,128.6861
48.45,151.1484
48.5,156.2666
48.55,141.9559
48.6,112.8458
48.65,78.6498
48.7,48.0197
48.75,26.06796
48.8,13.17247
48.85,7.360155
48.9,5.173272
48.95,4.182992
49,3.585052
49.05,3.014335
49.1,2.477017
49.15,2.140013
49.2,2.006293
49.25,1.893007
49.3,1.776691
49.35,1.55578
49.4,1.359987
49.45,1.163979
49.5,1.083026
49.55,0.8925788
49.6,0.6138202
49.65,0.3644835
49.7,0.1066988
49.75,-1.332259E-02
49.8,-3.103085E-02
49.85,-0.1439872
49.9,-0.1834743
49.95,-0.1879765
50,-0.2121506
50.05,-0.2645482
50.1,-0.352689
50.15,-0.5539542
50.2,-0.9163118
50.25,-1.071839
50.3,-1.133101
50.35,-0.9061541
50.4,-0.8127475
50.45,-0.8255392
50.5,-0.9341539
50.55,-0.9838904
50.6,-1.173758
50.65,-1.065481
50.7,-1.038162
50.75,-0.893689
50.8,-1.018314
50.85,-0.8606245
50.9,-0.7107513
50.95,-0.6251714
51,-0.6447925
51.05,-0.6811705
51.1,-0.7586921
51.15,-0.8488899
51.2,-0.8370101
51.25,-0.77231
51.3,-0.7209153
51.35,-0.8266761
51.4,-0.9571227
51.45,-1.029939
51.5,-1.175219
51.55,-1.420756
51.6,-1.523505
51.65,-1.524698
51.7,-1.550106
51.75,-1.572886
51.8,-1.437346
51.85,-1.401291
51.9,-1.340492
51.95,-1.327908
52,-1.248808
52.05,-1.224039
52.1,-1.297533
52.15,-1.323577
52.2,-1.294911
52.25,-1.188626
52.3,-1.15847
52.35,-1.109054
52.4,-1.10405
52.45,-1.226477
52.5,-1.371132
52.55,-1.346922
52.6,-1.361621
52.65,-1.393278
52.7,-1.32659
52.75,-1.012379
52.8,-5.037525E-02
52.85,3.006352
52.9,10.81208
52.95,26.82594
53,53.23104
53.05,89.55265
53.1,129.8616
53.15,163.1787
53.2,179.292
53.25,172.8588
53.3,146.1071
53.35,107.7889
53.4,69.47301
53.45,39.70479
53.5,21.01763
53.55,11.78662
53.6,8.424807
53.65,7.088579
53.7,6.503487
53.75,5.910291
53.8,5.487295
53.85,4.953975
53.9,4.592893
53.95,4.20514
54,3.727737
54.05,3.362208
54.1,3.27275
54.15,3.011836
54.2,2.734384
54.25,2.603812
54.3,2.47731
54.35,2.161595
54.4,1.956433
54.45,2.026983
54.5,1.90291
54.55,1.65734
54.6,1.484196
54.65,1.395641
54.7,1.251059
54.75,1.098545
54.8,0.9604414
54.85,0.7843666
54.9,0.3420148
54.95,0.4453935
55,0.5086793
55.05,0.5884682
55.1,0.4410594
55.15,0.2896961
55.2,9.338909E-02
55.25,-9.612329E-02
55.3,-0.2700183
55.35,-0.4081011
55.4,-0.5375357
55.45,-0.5202646
55.5,-0.4165936
55.55,-0.3772078
55.6,-0.3374141
55.65,-0.4241522
55.7,-0.5657267
55.75,-0.5885829
55.8,-0.4219
55.85,-0.3806854
55.9,-0.4347752
55.95,-0.5023673
56,-0.4993766
56.05,-0.5245481
56.1,-0.3465431
56.15,-0.1773909
56.2,-0.1785453
56.25,-0.3592918
56.3,-0.4874297
56.35,-0.5578729
56.4,-0.5673168
56.45,-0.5189831
56.5,-0.5341709
56.55,-0.6170989
56.6,-0.662818
56.65,-0.6710821
56.7,-0.8083957
56.75,-0.7766771
56.8,-0.7672426
56.85,-0.762735
56.9,-0.8924363
56.95,-0.6825233
57,-0.7049866
57.05,-0.6751665
57.1,-0.7392119
57.15,-0.6643524
57.2,-0.706069
57.25,-0.670461
57.3,-0.6594042
57.35,-0.6027992
57.4,-0.6028153
57.45,-0.1497044
57.5,1.769311
57.55,7.592822
57.6,20.79257
57.65,44.90654
57.7,80.53899
57.75,123.5655
57.8,166.1761
57.85,196.4498
57.9,204.5876
57.95,187.1175
58,150.2254
58.05,105.4011
58.1,64.82576
58.15,36.68875
58.2,21.17925
58.25,13.97559
58.3,11.39582
58.35,10.06746
58.4,9.381246
58.45,8.617351
58.5,8.049535
58.55,7.481437
58.6,6.878901
58.65,6.415925
58.7,5.951072
58.75,5.560603
58.8,5.060378
58.85,4.801965
58.9,4.730865
58.95,4.568787
59,4.394728
59.05,4.118742
59.1,3.562438
59.15,2.910981
59.2,2.49104
59.25,2.583232
59.3,2.407317
59.35,2.186485
59.4,1.887985
59.45,1.622898
59.5,1.408758
59.55,1.522918
59.6,1.757873
59.65,1.809691
59.7,1.602105
59.75,1.325522
59.8,1.042726
59.85,0.8025406
59.9,0.7629804
59.95,0.8408158
60,0.8555918
60.05,0.7208423
60.1,0.6123677
60.15,0.4537296
60.2,0.2789327
60.25,0.1596648
60.3,6.744503E-02
60.35,3.029553E-02
60.4,2.071091E-03
60.45,-5.912004E-02
60.5,-0.1676964
60.55,-0.2605741
60.6,-0.2096009
60.65,-0.2548891
60.7,-0.333581
60.75,-0.3393904
60.8,-0.3508596
60.85,-0.319225
60.9,-0.192364
60.95,-1.912935E-02
61,-4.483584E-02
61.05,-9.066644E-02
61.1,-0.1581572
61.15,-0.3263792
61.2,-0.495993
61.25,-0.5313408
61.3,-0.6327204
61.35,-0.5390571
61.4,-0.4892265
61.45,-0.4624072
61.5,-0.5087277
61.55,-0.5367275
61.6,-0.6284733
61.65,-0.7684012
61.7,-0.8698812
61.75,-0.8646808
61.8,-0.8751386
61.85,-0.8315175
61.9,-0.8014602
61.95,-0.8032497
62,-0.8320656
62.05,-0.9440225
62.1,-0.841545
62.15,-0.7745917
62.2,-0.7079113
62.25,-0.7353882
62.3,-0.6116012
62.35,-0.5244356
62.4,-0.6754805
62.45,-0.7214434
62.5,-0.5279859
62.55,-0.5656407
62.6,-0.4750946
62.65,-0.5009131
62.7,-0.4862343
62.75,-0.5540169
62.8,-0.5747024
62.85,-0.5895938
62.9,-0.6301398
62.95,-0.6647108
63,-0.7452683
63.05,-0.7708066
63.1,-0.7790455
63.15,-0.7572135
63.2,-0.8547811
63.25,-0.8736145
63.3,-0.8234311
63.35,-0.7644594
63.4,-0.7319013
63.45,-0.5709823
63.5,-0.5450955
63.55,-0.5815004
63.6,-0.6847295
63.65,-0.6418735
63.7,-0.6551482
63.75,-0.5513492
63.8,-0.5221569
63.85,-0.5493836
63.9,-0.6965994
63.95,-0.8260276
64,-0.9447427
64.05,-0.9948776
64.1,-0.8861353
64.15,-0.7873194
64.2,-0.7530997
64.25,-0.6936665
64.3,-0.7076022
64.35,-0.8563678
64.4,-0.9149562
64.45,-0.9265581
64.5,-0.9603988
64.55,-1.071487
64.6,-0.9437365
64.65,-0.8393155
64.7,-0.6867045
64.75,-0.581212
64.8,-0.5357659
64.85,-0.586342
64.9,-0.6394435
64.95,-0.5916175
65,-0.5503978
65.05,-0.5347881
65.1,-0.5522284
65.15,-0.660826
65.2,-0.7471839
65.25,-0.8013824
65.3,-0.8564721
65.35,-0.8795835
65.4,-0.869252
65.45,-0.9356458
65.5,-1.042811
65.55,-1.052849
65.6,-1.06188
65.65,-0.8196514
65.7,-0.7273251
65.75,-0.5182772
65.8,-0.6689439
65.85,-0.7880679
65.9,-0.8342342
65.95,-0.8506192
66,-0.7275718
66.05,-0.6228693
66.1,-0.594733
66.15,-0.5748022
66.2,-0.5795065
66.25,-0.574808
66.3,-0.5952477
66.35,-0.4554695
66.4,-0.367041
66.45,-0.4007133
66.5,-0.4235488
66.55,-0.5205364
66.6,-0.192584
66.65,0.7016895
66.7,5.137642
66.75,15.05846
66.8,34.47435
66.85,65.17902
66.9,106.1532
66.95,152.4487
67,194.4411
67.05,221.5325
67.1,225.9431
67.15,206.7829
67.2,170.0896
67.25,126.1543
67.3,85.62157
67.35,55.00288
67.4,35.38643
67.45,24.72897
67.5,19.64058
67.55,16.83298
67.6,15.05736
67.65,13.7133
67.7,12.61072
67.75,11.5794
67.8,10.5201
67.85,10.10965
67.9,9.313313
67.95,8.64442
68,8.01186
68.05,7.629352
68.1,7.072814
68.15,6.481193
68.2,6.125941
68.25,5.900177
68.3,5.637904
68.35,5.449056
68.4,5.20635
68.45,4.759923
68.5,4.364654
68.55,4.132055
68.6,3.993463
68.65,3.573096
68.7,3.359132
68.75,3.028912
68.8,2.858171
68.85,2.80574
68.9,2.52552
68.95,2.098223
69,1.659694
69.05,1.440748
69.1,1.540642
69.15,1.49783
69.2,1.610743
69.25,1.463658
69.3,1.173803
69.35,0.8735522
69.4,0.5631405
69.45,0.3475431
69.5,0.1785979
69.55,0.2448002
69.6,0.3039142
69.65,0.3744653
69.7,0.344723
69.75,0.3049663
69.8,0.1850042
69.85,7.556655E-02
69.9,-5.920058E-02
69.95,7.372698E-02
70,0.1181822
70.05,0.190917
70.1,0.1753223
70.15,0.1239425
70.2,-8.283216E-02
70.25,-0.1005725
70.3,-0.1634728
70.35,-0.3434759
70.4,-0.5662795
70.45,-0.7601724
70.5,-0.9182054
70.55,-0.9369417
70.6,-0.9019524
70.65,-0.9336176
70.7,-0.8741671
70.75,-0.8264359
70.8,-0.7845495
70.85,-0.9497716
70.9,-0.9728482
70.95,-1.073079
71,-1.126633
71.05,-0.9773166
71.1,-0.7194984
71.15,-0.7166926
71.2,-0.6911343
71.25,-0.7545903
71.3,-0.7834606
71.35,-0.8313771
71.4,-0.929713
71.45,-0.9964368
71.5,-1.083033
71.55,-1.222651
71.6,-1.35462
71.65,-1.378004
71.7,-1.297819
71.75,-1.232174
71.8,-1.230525
71.85,-1.175693
71.9,-1.312344
71.95,-1.534685
72,-1.745379
72.05,-1.681782
72.1,-1.541009
72.15,-1.370223
72.2,-1.282527
72.25,-1.163937
72.3,-1.29608
72.35,-1.415627
72.4,-1.43812
72.45,-1.358206
72.5,-1.277005
72.55,-1.241894
72.6,-1.243799
72.65,-1.234367
72.7,-1.312459
72.75,-1.511679
72.8,-1.651985
72.85,-1.59817
72.9,-1.532741
72.95,-1.534371
73,-1.423995
73.05,-1.542895
73.1,-1.723292
73.15,-1.956606
73.2,-1.854362
73.25,-1.917302
73.3,-1.81533
73.35,-1.720524
73.4,-1.525388
73.45,-1.58781
73.5,-1.691457
73.55,-1.724525
73.6,-1.712887
73.65,-1.738898
73.7,-1.648457
73.75,-1.572904
73.8,-1.511806
73.85,-1.579419
73.9,-1.641717
73.95,-1.68164
74,-1.807628
74.05,-1.931316
74.1,-1.982524
74.15,-1.880594
74.2,-1.900379
74.25,-1.86503
74.3,-1.903967
74.35,-1.940832
74.4,-2.068732
74.45,-2.138324
74.5,-2.070602
74.55,-2.040947
74.6,-1.980446
74.65,-1.994541
74.7,-1.979378
74.75,-1.834894
74.8,-1.729581
74.85,-1.51857
74.9,-1.038839
74.95,0.4627919
75,4.140156
75.05,12.76514
75.1,28.42187
75.15,53.23236
75.2,88.10251
75.25,131.1132
75.3,177.3363
75.35,217.4818
75.4,242.6118
75.45,249.1774
75.5,235.2579
75.55,204.8296
75.6,164.3352
75.65,122.3793
75.7,85.79085
75.75,58.61987
75.8,41.20881
75.85,31.36007
75.9,25.95916
75.95,22.28201
76,19.24142
76.05,16.88212
76.1,15.14676
76.15,13.7666
76.2,12.361
76.25,11.57014
76.3,10.76815
76.35,10.0036
76.4,9.122279
76.45,8.676195
76.5,7.993615
76.55,7.460571
76.6,6.831343
76.65,6.486248
76.7,6.000638
76.75,5.305745
76.8,4.892625
76.85,4.64759
76.9,4.291774
76.95,4.014462
77,3.801818
77.05,3.419861
77.1,2.920231
77.15,2.587468
77.2,2.450233
77.25,2.261966
77.3,2.080209
77.35,1.795843
77.4,1.454017
77.45,0.9579799
77.5,0.6702741
77.55,0.4779373
77.6,0.5860541
77.65,0.6295686
77.7,0.4322443
77.75,4.907444E-02
77.8,-0.3423596
77.85,-0.7156746
77.9,-0.8934977
77.95,-0.8647718
78,-0.7240351
78.05,-0.7429136
78.1,-0.7912918
78.15,-0.7584539
78.2,-0.8450376
78.25,-0.9564024
78.3,-1.249518
78.35,-1.369562
78.4,-1.542022
78.45,-1.415685
78.5,-1.312354
78.55,-1.263197
78.6,-1.371337
78.65,-1.572386
78.7,-1.735495
78.75,-1.708664
78.8,-1.769514
78.85,-1.710322
78.9,-1.806574
78.95,-1.830788
79,-1.821289
79.05,-1.839247
79.1,-1.838249
79.15,-1.892216
79.2,-1.968625
79.25,-2.123581
79.3,-2.159303
79.35,-2.249099
79.4,-2.219808
79.45,-2.056354
79.5,-2.063955
79.55,-1.975795
79.6,-1.92555
79.65,-1.993579
79.7,-2.03426
79.75,-2.102368
79.8,-2.021635
79.85,-1.958927
79.9,-1.870987
79.95,-1.944141
80,-2.095547
80.05,-2.200403
80.1,-2.178195
80.15,-2.201723
80.2,-2.223611
80.25,-2.235224
80.3,-2.334828
80.35,-2.373716
80.4,-2.42263
80.45,-2.447306
80.5,-2.543359
80.55,-2.584357
80.6,-2.755761
80.65,-2.717731
80.7,-2.562426
80.75,-2.329836
80.8,-1.757195
80.85,-0.432086
80.9,2.643074
80.95,9.219373
81,20.88431
81.05,40.65003
81.1,70.11233
81.15,108.4875
81.2,152.0819
81.25,196.4449
81.3,233.4201
81.35,254.8005
81.4,257.6493
81.45,242.5519
81.5,213.8005
81.55,177.4512
81.6,140.5781
81.65,106.9385
81.7,79.02879
81.75,58.37212
81.8,44.90408
81.85,36.06548
81.9,30.68025
81.95,26.73128
82,24.08138
82.05,22.26589
82.1,20.68202
82.15,19.08437
82.2,17.88323
82.25,16.84609
82.3,15.96984
82.35,15.34729
82.4,14.6211
82.45,13.78836
82.5,12.68565
82.55,11.55828
82.6,10.58371
82.65,9.655113
82.7,9.071584
82.75,8.549414
82.8,8.138197
82.85,7.740989
82.9,6.788858
82.95,6.286574
83,5.655515
83.05,4.766225
83.1,3.810789
83.15,3.303305
83.2,3.013378
83.25,2.701539
83.3,2.50467
83.35,2.393005
83.4,2.098182
83.45,1.693132
83.5,1.446577
83.55,1.150894
83.6,0.7769738
83.65,0.5769525
83.7,0.4520056
83.75,0.1777233
83.8,-6.745602E-02
83.85,-0.1770824
83.9,-0.1804349
83.95,-0.325334
84,-0.3286956
84.05,-0.5624579
84.1,-0.7562881
84.15,-0.964148
84.2,-1.142958
84.25,-1.269776
84.3,-1.264586
84.35,-1.356788
84.4,-1.438075
84.45,-1.490285
84.5,-1.515438
84.55,-1.556274
84.6,-1.623151
84.65,-1.613978
84.7,-1.705576
84.75,-1.718342
84.8,-1.732979
84.85,-1.686604
84.9,-1.64821
84.95,-1.647848
85,-1.847916
85.05,-1.857312
85.1,-1.943654
85.15,-2.077083
85.2,-2.175462
85.25,-2.136533
85.3,-2.162095
85.35,-2.263221
85.4,-2.325955
85.45,-2.323843
85.5,-2.158269
85.55,-1.370047
85.6,0.8733147
85.65,5.161427
85.7,12.82623
85.75,25.73854
85.8,45.30757
85.85,73.22636
85.9,108.9708
85.95,149.4812
86,191.6773
86.05,228.7476
86.1,258.6208
86.15,275.4384
86.2,276.1931
86.25,262.3609
86.3,236.2723
86.35,202.2805
86.4,164.8229
86.45,129.448
86.5,99.88741
86.55,76.6828
86.6,60.27482
86.65,49.29559
86.7,41.86935
86.75,36.12845
86.8,31.34777
86.85,27.45627
86.9,24.36978
86.95,22.39507
87,20.58946
87.05,20.05608
87.1,19.14733
87.15,17.6129
87.2,15.94601
87.25,14.52328
87.3,13.04859
87.35,12.33748
87.4,11.90396
87.45,11.35891
87.5,10.4266
87.55,9.552982
87.6,8.331096
87.65,6.86886
87.7,5.727233
87.75,4.869854
87.8,4.093234
87.85,3.642424
87.9,3.327722
87.95,2.887469
88,2.319397
88.05,1.735735
88.1,1.385857
88.15,1.012828
88.2,0.7065992
88.25,0.3289362
88.3,-5.909882E-02
88.35,-0.2875347
88.4,-0.5400887
88.45,-0.5084766
88.5,-0.3318069
88.55,-0.4117637
88.6,-0.4813788
88.65,-0.5603169
88.7,-0.4275247
88.75,-0.4594092
88.8,-0.3886165
88.85,0.1990043
88.9,1.545157
88.95,4.455816
89,10.31204
89.05,20.57851
89.1,36.26334
89.15,58.54948
89.2,88.47605
89.25,124.229
89.3,163.2817
89.35,201.7465
89.4,234.0183
89.45,257.572
89.5,268.7321
89.55,265.0013
89.6,247.6505
89.65,220.2458
89.7,188.4296
89.75,155.8501
89.8,126.5116
89.85,102.0549
89.9,81.73899
89.95,65.59321
90,53.44777
90.05,45.38224
90.1,40.07153
90.15,36.5814
90.2,33.9294
90.25,31.05696
90.3,28.21424
90.35,25.29117
90.4,22.57066
90.45,20.37545
90.5,18.62032
90.55,17.30192
90.6,16.08719
90.65,14.97091
90.7,13.71951
90.75,11.72938
90.8,9.89351
90.85,8.500463
90.9,7.543056
90.95,6.871357
91,6.29093
91.05,5.634102
91.1,4.830571
91.15,4.097226
91.2,3.446029
91.25,3.000921
91.3,2.859612
91.35,2.834213
91.4,2.53973
91.45,2.192218
91.5,1.604323
91.55,1.094741
91.6,0.5250086
91.65,0.5019712
91.7,0.4379574
91.75,0.3773921
91.8,0.3976944
91.85,0.2148783
91.9,-0.1559157
91.95,-0.5908443
92,-0.792129
92.05,-0.8289288
92.1,-0.8126767
92.15,-0.6809705
92.2,-0.7740824
92.25,-0.9704129
92.3,-1.036634
92.35,-0.9906121
92.4,-0.7831593
92.45,-0.837223
92.5,-0.9469664
92.55,-1.347358
92.6,-1.598316
92.65,-1.644284
92.7,-1.607485
92.75,-1.471854
92.8,-1.483642
92.85,-1.639579
92.9,-1.687224
92.95,-1.598473
93,-0.8187629
93.05,1.178166
93.1,4.503563
93.15,9.676811
93.2,17.99215
93.25,30.57419
93.3,48.2943
93.35,71.65643
93.4,100.4067
93.45,133.6472
93.5,168.8438
93.55,203.1631
93.6,231.6579
93.65,254.0331
93.7,266.2523
93.75,264.4712
93.8,252.2371
93.85,233.0113
93.9,210.1645
93.95,185.9947
94,163.2542
94.05,142.6148
94.1,122.3603
94.15,104.5446
94.2,90.40417
94.25,78.38412
94.3,67.73267
94.35,58.33999
94.4,50.66804
94.45,44.04507
94.5,38.48757
94.55,34.63044
94.6,31.15766
94.65,26.94254
94.7,23.418
94.75,19.89978
94.8,17.53969
94.85,15.78378
94.9,14.07617
94.95,12.79729
95,11.61141
95.05,10.27578
95.1,9.276815
95.15,8.508763
95.2,7.656241
95.25,6.192768
95.3,4.798419
95.35,3.943252
95.4,3.51626
95.45,3.634151
95.5,3.998881
95.55,3.93281
95.6,3.219251
95.65,2.314373
95.7,1.569238
95.75,1.606212
95.8,1.790599
95.85,1.816121
95.9,1.555612
95.95,1.250019
96,1.003284
96.05,0.7642522
96.1,0.6556113
96.15,0.5526886
96.2,0.475238
96.25,0.6129451
96.3,0.8190483
96.35,0.8767866
96.4,0.6710293
96.45,0.3807711
96.5,0.2150892
96.55,0.2405731
96.6,0.2603498
96.65,0.1677407
96.7,9.701722E-02
96.75,-0.0598174
96.8,-0.1853193
96.85,-0.3467862
96.9,-0.1623804
96.95,-0.1197714
97,-0.1208413
97.05,-0.1510391
97.1,0.1928421
97.15,0.5549915
97.2,0.7733456
97.25,0.761002
97.3,0.5326393
97.35,0.2182668
97.4,-3.801059E-02
97.45,-0.1003308
97.5,-8.071971E-02
97.55,-0.0255812
97.6,0.1510114
97.65,0.3289525
97.7,0.4978477
97.75,0.7545621
97.8,0.8602819
97.85,0.8513402
97.9,0.7771384
97.95,0.4993438
98,8.003046E-02
98.05,-0.3555502
98.1,-0.699549
98.15,-0.7759221
98.2,-0.6495652
98.25,-0.3295049
98.3,-0.2068797
98.35,-0.2785825
98.4,-0.5492133
98.45,-0.7433312
98.5,-0.6900063
98.55,-0.3322589
98.6,-9.276781E-03
98.65,5.221719E-02
98.7,-8.134462E-03
98.75,-0.1626989
98.8,-6.134384E-02
98.85,-2.202666E-02
98.9,2.037469E-02
98.95,-0.2249157
99,-0.7244873
99.05,-1.004015
99.1,-0.9182462
99.15,-0.7552844
99.2,-0.3827471
99.25,-0.1564558
99.3,-8.950054E-02
99.35,-0.246101
99.4,-0.3715432
99.45,-0.4910345
99.5,-0.6930981
99.55,-0.8461823
99.6,-0.7489611
99.65,-0.4971225
99.7,7.029329E-02
99.75,1.209633
99.8,2.498091
99.85,3.923464
99.9,6.751893
99.95,12.83561
100,22.09777
100.05,37.07907
100.1,57.5952
100.15,81.76306
100.2,110.4149
100.25,144.3043
100.3,183.9815
100.35,224.9194
100.4,263.7039
100.45,297.0557
100.5,321.0128
100.55,334.8228
100.6,338.6428
100.65,332.5412
100.7,316.7827
100.75,292.4937
100.8,263.5952
100.85,233.5392
100.9,202.9064
100.95,175.2859
101,149.312
101.05,125.6424
101.1,104.7913
101.15,85.58978
101.2,71.17539
101.25,58.96918
101.3,49.57967
101.35,43.1488
101.4,35.84267
101.45,30.44571
101.5,25.59383
101.55,21.68891
101.6,19.06639
101.65,16.79382
101.7,14.4887
101.75,11.49158
101.8,8.828602
101.85,7.221724
101.9,6.181547
101.95,5.638793
102,5.431507
102.05,5.515162
102.1,5.439153
102.15,5.019681
102.2,4.328211
102.25,3.509917
102.3,2.702737
102.35,2.634815
102.4,2.782418
102.45,2.597986
102.5,1.855335
102.55,1.287344
102.6,1.017612
102.65,1.195137
102.7,1.485623
102.75,1.509985
102.8,1.362702
102.85,1.194525
102.9,1.114037
102.95,1.032463
103,0.8541158
103.05,0.656345
103.1,0.6450232
103.15,1.154731
103.2,2.1672
103.25,3.067203
103.3,4.143946
103.35,7.042189
103.4,13.14289
103.45,21.85993
103.5,33.98643
103.55,50.9754
103.6,71.64672
103.65,97.61711
103.7,131.6949
103.75,171.0262
103.8,211.1712
103.85,250.6281
103.9,286.5273
103.95,314.8047
104,334.8565
104.05,347.5294
104.1,353.4208
104.15,350.6376
104.2,339.6829
104.25,320.3431
104.3,292.1928
104.35,259.407
104.4,226.0531
104.45,197.2971
104.5,170.6937
104.55,146.6279
104.6,125.9227
104.65,106.6355
104.7,89.13271
104.75,73.38894
104.8,60.22516
104.85,49.94225
104.9,43.01017
104.95,38.25402
105,33.1999
105.05,28.24242
105.1,23.37888
105.15,18.74272
105.2,15.35792
105.25,12.96702
105.3,11.72476
105.35,10.93673
105.4,10.98807
105.45,10.98985
105.5,10.13945
105.55,8.579611
105.6,7.590739
105.65,7.138444
105.7,7.316605
105.75,7.433317
105.8,7.638172
105.85,7.545523
105.9,7.284449
105.95,6.613505
106,5.696355
106.05,5.283551
106.1,5.594077
106.15,6.056777
106.2,5.87425
106.25,5.296764
106.3,4.650808
106.35,4.021063
106.4,4.100455
106.45,4.721739
106.5,5.06004
106.55,5.409395
106.6,5.246012
106.65,4.832718
106.7,4.075914
106.75,3.538534
106.8,3.528164
106.85,3.853573
106.9,4.149518
106.95,4.370806
107,4.470889
107.05,4.456192
107.1,4.509268
107.15,4.162306
107.2,3.793612
107.25,4.047454
107.3,4.768761
107.35,5.296668
107.4,5.084469
107.45,4.42519
107.5,3.52574
107.55,2.603852
107.6,2.537782
107.65,2.582197
107.7,2.244054
107.75,2.114004
107.8,2.805944
107.85,3.114002
107.9,3.375356
107.95,3.42073
108,3.41051
108.05,2.940817
108.1,2.065078
108.15,1.172098
108.2,0.4307379
108.25,0.5093601
108.3,1.03006
108.35,1.503935
108.4,1.553014
108.45,1.614824
108.5,1.585283
108.55,1.735034
108.6,2.563451
108.65,4.587875
108.7,8.943442
108.75,15.22875
108.8,23.01869
108.85,32.87929
108.9,46.14374
108.95,62.91384
109,79.52429
109.05,93.64271
109.1,107.9782
109.15,125.3511
109.2,145.8768
109.25,167.7892
109.3,182.8989
109.35,191.1653
109.4,197.9999
109.45,204.5336
109.5,209.9571
109.55,209.8722
109.6,205.456
109.65,193.9608
109.7,178.3145
109.75,169.653
109.8,160.6445
109.85,146.0375
109.9,129.597
109.95,114.2971
110,101.9381
110.05,91.31764
110.1,81.79952
110.15,72.08537
110.2,61.35923
110.25,51.91439
110.3,44.84205
110.35,39.33352
110.4,34.83287
110.45,30.20026
110.5,25.81066
110.55,23.3405
110.6,21.64965
110.65,20.04481
110.7,18.23162
110.75,16.50293
110.8,15.10392
110.85,13.74942
110.9,13.13502
110.95,12.85235
111,12.04316
111.05,11.06219
111.1,9.408739
111.15,8.042925
111.2,7.51339
111.25,7.620115
111.3,7.486361
111.35,6.793568
111.4,6.17873
111.45,5.648463
111.5,4.960627
111.55,4.470621
111.6,3.879811
111.65,3.220177
111.7,2.562381
111.75,2.938571
111.8,4.626237
111.85,5.451263
111.9,6.257141
111.95,7.626414
112,9.499663
112.05,11.60861
112.1,14.86226
112.15,19.71456
112.2,25.9236
112.25,35.13089
112.3,47.38767
112.35,61.62178
112.4,74.88659
112.45,85.24483
112.5,95.48322
112.55,107.3571
112.6,122.3175
112.65,137.5069
112.7,146.4692
112.75,147.8854
112.8,146.1705
112.85,145.6097
112.9,146.8482
112.95,149.496
113,154.8869
113.05,152.968
113.1,144.5475
113.15,136.2982
113.2,127.1287
113.25,117.2125
113.3,109.304
113.35,101.5202
113.4,93.42743
113.45,84.6294
113.5,76.25095
113.55,66.60126
113.6,54.87515
113.65,44.21814
113.7,36.42431
113.75,32.89204
113.8,31.07433
113.85,28.31544
113.9,25.80503
113.95,22.2252
114,20.32236
114.05,19.19812
114.1,18.81641
114.15,16.38277
114.2,12.37053
114.25,8.460361
114.3,6.291124
114.35,5.504634
114.4,5.546597
114.45,5.77252
114.5,5.838384
114.55,5.248242
114.6,3.896609
114.65,2.95041
114.7,3.020942
114.75,3.187253
114.8,3.064025
114.85,2.713714
114.9,2.255529
114.95,1.421391
115,1.251473
115.05,2.269379
115.1,3.467635
115.15,3.404584
115.2,2.163144
115.25,1.349916
115.3,0.1383461
115.35,-0.230822
115.4,0.2612036
115.45,0.6450136
115.5,0.8830519
115.55,0.7180672
115.6,0.6718442
115.65,0.5889813
115.7,0.4746305
115.75,5.563011E-02
115.8,-0.6117408
115.85,-1.058637
115.9,-0.9600797
115.95,-0.4830263
116,1.186999E-02
116.05,0.7378507
116.1,1.124021
116.15,0.9722204
116.2,0.5401489
116.25,-0.1709729
116.3,-0.6022556
116.35,-1.309561
116.4,-1.86504
116.45,-2.099952
116.5,-2.254671
116.55,-2.464158
116.6,-2.643149
116.65,-2.882156
116.7,-2.986894
116.75,-3.060853
116.8,-3.007164
116.85,-2.887282
116.9,-2.932174
116.95,-3.185506
117,-3.532447
117.05,-3.872638
117.1,-4.206468
117.15,-4.350227
117.2,-4.184097
117.25,-3.851975
117.3,-3.846017
117.35,-3.493683
117.4,-3.33683
117.45,-3.194998
117.5,-3.251472
117.55,-3.349977
117.6,-3.555196
117.65,-3.904129
117.7,-4.239551
117.75,-4.318789
117.8,-4.334195
117.85,-4.183159
117.9,-4.004448
117.95,-3.896868
118,-3.991796
118.05,-4.289184
118.1,-4.56911
118.15,-4.735865
118.2,-4.790605
118.25,-4.746078
118.3,-4.601816
118.35,-4.436403
118.4,-4.260603
118.45,-4.208255
118.5,-4.233237
118.55,-4.31541
118.6,-4.388953
118.65,-4.090506
118.7,-3.880858
118.75,-3.935964
118.8,-4.046581
118.85,-4.16308
118.9,-4.236999
118.95,-4.370492
119,-4.462854
119.05,-4.561269
119.1,-4.832243
119.15,-4.874102
119.2,-4.870278
119.25,-4.821681
119.3,-4.694207
119.35,-4.515094
119.4,-4.488461
119.45,-4.445385
119.5,-4.686687
119.55,-4.858585
119.6,-5.141544
119.65,-5.037071
119.7,-4.881969
119.75,-4.71723
119.8,-4.565613
119.85,-4.570004
119.9,-4.725032
119.95,-4.744329
120,-4.746552
120.05,-4.806416
120.1,-4.869646
120.15,-4.939456
120.2,-5.042509
120.25,-5.034387
120.3,-4.894272
120.35,-4.754872
120.4,-4.693198
120.45,-4.662636
120.5,-4.750563
120.55,-5.107503
120.6,-5.275615
120.65,-5.402726
120.7,-5.344595
120.75,-5.058228
120.8,-4.854118
120.85,-4.726897
120.9,-4.81711
120.95,-4.999807
121,-5.059587
121.05,-5.045347
121.1,-4.955396
121.15,-4.86225
121.2,-4.595515
121.25,-4.413345
121.3,-4.434865
121.35,-4.468048
121.4,-4.595877
121.45,-4.955659
121.5,-5.26442
121.55,-5.378775
121.6,-5.243965
121.65,-4.98392
121.7,-4.877937
121.75,-4.678545
121.8,-4.887587
121.85,-5.152442
121.9,-5.351544
121.95,-5.195423
122,-4.966836
122.05,-4.841081
122.1,-4.787291
122.15,-4.868309
122.2,-4.960755
122.25,-4.814167
122.3,-4.625952
122.35,-4.699724
122.4,-4.892009
122.45,-5.162031
122.5,-5.333058
122.55,-5.459032
122.6,-5.270144
122.65,-5.192739
122.7,-5.179314
122.75,-5.187537
122.8,-5.25888
122.85,-5.424972
122.9,-5.419981
122.95,-5.435631
123,-5.389857
123.05,-5.414537
123.1,-5.394268
123.15,-5.456817
123.2,-5.543703
123.25,-5.606711
123.3,-5.625592
123.35,-5.61686
123.4,-5.367501
123.45,-4.962834
123.5,-4.709173
123.55,-4.658418
123.6,-4.811295
123.65,-5.087271
123.7,-5.376569
123.75,-5.297268
123.8,-5.16665
123.85,-5.246765
123.9,-5.348072
123.95,-5.372597
124,-5.460269
124.05,-5.503867
124.1,-5.581798
124.15,-5.707724
124.2,-5.992217
124.25,-6.102149
124.3,-6.031523
124.35,-5.953524
124.4,-5.779565
124.45,-5.653848
124.5,-5.58465
124.55,-5.564781
124.6,-5.44829
124.65,-5.4303
124.7,-5.45017
124.75,-5.433349
124.8,-5.347022
124.85,-5.538291
124.9,-5.374272
124.95,-5.355469
125,-5.232575
125.05,-5.206764
125.1,-5.278056
125.15,-5.454965
125.2,-5.670603
125.25,-5.72365
125.3,-5.679418
125.35,-5.71707
125.4,-5.73247
125.45,-5.76407
125.5,-5.739209
125.55,-5.668021
125.6,-5.651721
125.65,-5.716763
125.7,-5.914063
125.75,-6.002811
125.8,-6.085176
125.85,-5.878604
125.9,-5.735581
125.95,-5.497181
126,-5.477957
126.05,-5.549869
126.1,-5.498327
126.15,-5.438213
126.2,-5.35655
126.25,-5.367398
126.3,-5.476274
126.35,-5.513306
126.4,-5.53661
126.45,-5.488613
126.5,-5.457246
126.55,-5.529965
126.6,-5.622663
126.65,-5.725278
126.7,-5.757014
126.75,-5.850903
126.8,-5.703521
126.85,-5.533611
126.9,-5.44343
126.95,-5.576814
127,-5.788313
127.05,-6.068039
127.1,-6.120383
127.15,-6.13415
127.2,-5.995403
127.25,-5.946455
127.3,-5.795688
127.35,-5.721836
127.4,-5.741226
127.45,-5.719602
127.5,-5.639984
127.55,-5.627182
127.6,-5.620944
127.65,-5.603144
127.7,-5.644129
127.75,-5.834792
127.8,-5.98532
127.85,-6.100847
127.9,-6.160763
127.95,-6.166432
128,-6.295691
128.05,-6.283583
128.1,-6.208086
128.15,-6.285136
128.2,-6.285279
128.25,-6.21815
128.3,-6.225135
128.35,-6.171461
128.4,-6.010128
128.45,-5.753483
128.5,-5.690307
128.55,-5.741907
128.6,-5.770227
128.65,-5.788902
128.7,-5.690064
128.75,-5.62478
128.8,-5.596388
128.85,-5.585131
128.9,-5.568257
128.95,-5.690625
129,-5.77193
129.05,-5.960442
129.1,-6.122571
129.15,-6.45345
129.2,-6.283628
129.25,-6.169498
129.3,-6.16826
129.35,-6.256187
129.4,-6.291667
129.45,-6.369546
129.5,-6.313801
129.55,-6.181391
129.6,-6.058402
129.65,-6.010226
129.7,-5.928008
129.75,-5.897342
129.8,-5.893395
129.85,-5.833419
129.9,-5.772736
129.95,-5.786834
130,-5.758227
130.05,-5.664251
130.1,-5.830971
130.15,-5.985801
130.2,-6.138376
130.25,-6.218654
130.3,-6.296061
130.35,-6.176167
130.4,-6.136568
130.45,-6.241343
130.5,-6.403256
130.55,-6.479872
130.6,-6.535787
130.65,-6.48211
130.7,-6.424576
130.75,-6.378547
130.8,-6.351147
130.85,-6.300803
130.9,-6.219804
130.95,-6.128045
131,-5.999429
131.05,-5.911444
131.1,-5.850419
131.15,-5.860342
131.2,-5.92317
131.25,-6.025793
131.3,-5.972916
131.35,-5.96491
131.4,-5.761943
131.45,-5.694887
131.5,-5.750954
131.55,-5.803723
131.6,-5.836262
131.65,-5.980988
131.7,-6.044294
131.75,-6.078434
131.8,-6.154381
131.85,-6.218353
131.9,-6.218353
131.95,-6.218353
132,-6.218353
132.05,-6.218353
132.1,-6.218353
132.15,-6.218353
132.2,-6.218353
132.25,-6.218353
132.3,-6.218353
132.35,-6.218353
132.4,-6.218353
132.45,-6.218353
132.5,-6.218353
132.55,-6.218353
132.6,-6.218353
132.65,-6.218353
132.7,-6.218353
132.75,-6.218353
132.8,-6.218353
132.85,-6.218353
132.9,-6.218353
132.95,-6.218353
133,-6.218353
133.05,-6.218353
133.1,-6.218353
133.15,-6.218353
133.2,-6.218353
133.25,-6.218353
133.3,-6.218353
133.35,-6.218353
133.4,-6.218353
133.45,-6.218353
133.5,-6.218353
133.55,-6.218353
133.6,-6.218353
133.65,-6.218353
133.7,-6.218353
133.75,-6.218353
133.8,-6.218353
133.85,-6.218353
133.9,-6.218353
133.95,-6.218353
134,-6.218353
134.05,-6.218353
134.1,-6.218353
134.15,-6.218353
134.2,-6.218353
134.25,-6.218353
134.3,-6.218353
134.35,-6.218353
134.4,-6.218353
134.45,-6.218353
134.5,-6.218353
134.55,-6.218353
134.6,-6.218353
134.65,-6.218353
134.7,-6.218353
134.75,-6.218353
134.8,-6.218353
134.85,-6.218353
134.9,-6.218353
134.95,-6.218353
135,-6.218353
135.05,-6.218353
135.1,-6.218353
135.15,-6.218353
135.2,-6.218353
135.25,-6.218353
135.3,-6.218353
135.35,-6.218353
135.4,-6.218353
135.45,-6.218353
135.5,-6.218353
135.55,-6.218353
135.6,-6.218353
135.65,-6.218353
135.7,-6.218353
135.75,-6.218353
135.8,-6.218353
135.85,-6.218353
135.9,-6.218353
135.95,-6.218353
136,-6.218353
136.05,-6.218353
136.1,-6.218353
136.15,-6.218353
136.2,-6.218353
136.25,-6.218353
136.3,-6.218353
136.35,-6.218353
136.4,-6.218353
136.45,-6.218353
136.5,-6.218353
136.55,-6.218353
136.6,-6.218353
136.65,-6.218353
136.7,-6.218353
136.75,-6.218353
136.8,-6.218353
136.85,-6.218353
136.9,-6.218353
136.95,-6.218353
137,-6.218353
137.05,-6.218353
137.1,-6.218353
137.15,-6.218353
137.2,-6.218353
137.25,-6.218353
137.3,-6.218353
137.35,-6.218353
137.4,-6.218353
137.45,-6.218353
137.5,-6.218353
137.55,-6.218353
137.6,-6.218353
137.65,-6.218353
137.7,-6.218353
137.75,-6.218353
137.8,-6.218353
137.85,-6.218353
137.9,-6.218353
137.95,-6.218353
138,-6.218353
 
Alignment,On
