Data File Name,2100 expert_High Sensitivity DNA Assay_DE34904066_2015-05-22_14-28-17.xad
Data File Path,C:\Program Files (x86)\Agilent\2100 bioanalyzer\2100 expert\Data\2015-05-22
Date Created,"Friday, May 22, 2015 6:28:16 PM"
Date Last Modified,"Wednesday, May 27, 2015 3:00:00 PM"
Version Created,B.02.08.SI648
Version Last Modified,B.02.08.SI648
 
Assay Name,High Sensitivity DNA
Assay Path,C:\Program Files (x86)\Agilent\2100 bioanalyzer\2100 expert\assays\dsDNA
Assay Title,High Sensitivity DNA Assay
Assay Version,1.03
 
Number of Samples Run,11
 
Sample Name,8F #40 post amp 1:20
Number of Events,2121
 
Time,Value
32,0.6316376
32.05,0.6316376
32.1,0.6316376
32.15,0.6316376
32.2,0.6316376
32.25,0.6316376
32.3,0.6316376
32.35,0.6316376
32.4,0.6316376
32.45,0.6316376
32.5,0.6316376
32.55,0.6316376
32.6,0.6316376
32.65,0.6316376
32.7,0.6316376
32.75,0.6316376
32.8,0.6316376
32.85,0.6316376
32.9,0.6316376
32.95,0.6316376
33,0.6316376
33.05,0.6316376
33.1,0.6316376
33.15,0.6316376
33.2,0.6316376
33.25,0.6316376
33.3,0.6316376
33.35,0.6316376
33.4,0.6316376
33.45,0.6316376
33.5,0.6316376
33.55,0.6316376
33.6,0.6316376
33.65,0.6316376
33.7,0.6316376
33.75,0.6316376
33.8,0.6316376
33.85,0.6316376
33.9,0.6316376
33.95,0.6316376
34,0.6316376
34.05,0.6316376
34.1,0.6316376
34.15,0.6316376
34.2,0.6316376
34.25,0.6316376
34.3,0.6316376
34.35,0.6316376
34.4,0.6316376
34.45,0.6316376
34.5,0.2728558
34.55,1.957372E-02
34.6,-0.1317767
34.65,-0.1302698
34.7,-3.375665E-02
34.75,-3.236681E-02
34.8,-4.780728E-03
34.85,2.818936E-03
34.9,2.485421E-02
34.95,-5.861647E-03
35,-4.471041E-02
35.05,-4.740089E-02
35.1,-6.604712E-02
35.15,-0.1109487
35.2,-0.1369362
35.25,-0.1623161
35.3,-0.1699537
35.35,-3.558177E-02
35.4,0.1168054
35.45,0.2805534
35.5,0.3036024
35.55,0.1764695
35.6,-1.320895E-02
35.65,-0.1569444
35.7,-0.243615
35.75,-0.142855
35.8,7.178339E-03
35.85,0.1141404
35.9,0.1178809
35.95,0.1379137
36,0.3876657
36.05,0.7627469
36.1,0.934159
36.15,0.8939807
36.2,0.7371609
36.25,0.4445579
36.3,7.788993E-02
36.35,-0.1312291
36.4,4.439145E-02
36.45,0.3400088
36.5,0.4550848
36.55,0.4189503
36.6,0.2287001
36.65,4.516324E-02
36.7,-3.313657E-02
36.75,7.225155E-03
36.8,0.1064297
36.85,0.1795197
36.9,0.1406395
36.95,-0.0593652
37,-0.2644276
37.05,-0.2635115
37.1,-0.1632603
37.15,-0.1865463
37.2,-0.1790162
37.25,-0.1365102
37.3,-9.366646E-02
37.35,-0.043887
37.4,-0.0312207
37.45,-5.604634E-02
37.5,-0.157854
37.55,-0.2574386
37.6,-0.2578225
37.65,-0.1933571
37.7,-0.1473012
37.75,-0.1404705
37.8,-0.1249883
37.85,-1.531229E-02
37.9,6.251699E-03
37.95,-0.0981116
38,-0.1475945
38.05,-0.2352328
38.1,-0.33557
38.15,-0.3815775
38.2,-0.299549
38.25,-0.1250166
38.3,-9.611987E-02
38.35,-0.1054507
38.4,-1.002661E-02
38.45,9.642424E-02
38.5,6.794444E-02
38.55,-5.608188E-02
38.6,-0.1940033
38.65,-0.3954255
38.7,-0.5195934
38.75,-0.5301431
38.8,-0.4501382
38.85,-0.3730309
38.9,-0.2984164
38.95,-0.2771098
39,-0.2811308
39.05,-0.3440775
39.1,-0.3218176
39.15,-0.2653204
39.2,-0.3010396
39.25,-0.3814189
39.3,-0.4309042
39.35,-0.4400132
39.4,-0.3903253
39.45,-0.2875985
39.5,-0.1843624
39.55,-0.1139948
39.6,-0.1769852
39.65,-0.2894287
39.7,-0.3553772
39.75,-0.3135138
39.8,-0.2194745
39.85,-0.1631328
39.9,-0.2308725
39.95,-0.2690082
40,-0.2466016
40.05,-0.1783273
40.1,-0.1375094
40.15,-0.1627792
40.2,-0.2347697
40.25,-0.3176509
40.3,-0.3612413
40.35,-0.4160389
40.4,-0.3943416
40.45,-0.443598
40.5,-0.5322656
40.55,-0.5523092
40.6,-0.4060939
40.65,-0.2949955
40.7,-0.2105032
40.75,-0.2296736
40.8,-0.2694764
40.85,-0.3380825
40.9,-0.3965787
40.95,-0.3912395
41,-0.2540983
41.05,-1.533377E-02
41.1,0.1896153
41.15,0.3452726
41.2,0.2664343
41.25,6.424136E-02
41.3,-0.1446944
41.35,-0.3097521
41.4,-0.3290424
41.45,-0.2251651
41.5,-0.1903723
41.55,-0.1148601
41.6,-0.1990916
41.65,-0.2385648
41.7,-0.1762051
41.75,-7.036725E-02
41.8,1.313712E-02
41.85,6.202334E-02
41.9,0.1192764
41.95,0.2469436
42,0.5463139
42.05,0.8792385
42.1,1.43954
42.15,2.008343
42.2,2.456184
42.25,2.792493
42.3,2.952231
42.35,2.972168
42.4,3.03586
42.45,3.300031
42.5,4.33041
42.55,6.768188
42.6,11.21545
42.65,18.2759
42.7,28.5891
42.75,42.52055
42.8,59.39551
42.85,77.2486
42.9,93.49549
42.95,104.8232
43,108.4412
43.05,102.4507
43.1,89.31808
43.15,71.80467
43.2,53.1678
43.25,36.35857
43.3,23.11431
43.35,13.75765
43.4,7.87572
43.45,4.636939
43.5,3.197279
43.55,2.772136
43.6,2.691236
43.65,2.862312
43.7,3.117862
43.75,3.240578
43.8,3.176645
43.85,3.018515
43.9,2.804377
43.95,2.527335
44,2.261159
44.05,2.153178
44.1,2.156965
44.15,2.021089
44.2,1.782397
44.25,1.470243
44.3,1.131178
44.35,0.8546339
44.4,0.6532901
44.45,0.4744365
44.5,0.2265546
44.55,7.504992E-02
44.6,3.874131E-02
44.65,7.633439E-02
44.7,-6.352246E-03
44.75,6.683593E-02
44.8,0.1165933
44.85,0.2435619
44.9,0.3652363
44.95,0.4560758
45,0.4507524
45.05,0.3570009
45.1,0.3448998
45.15,0.4408994
45.2,0.5219705
45.25,0.5611002
45.3,0.548894
45.35,0.4636185
45.4,0.3149655
45.45,0.1680872
45.5,0.1225773
45.55,0.3267867
45.6,0.4175168
45.65,0.4140522
45.7,0.3298728
45.75,0.2090349
45.8,5.979925E-02
45.85,-0.0557511
45.9,-4.400245E-02
45.95,7.819452E-02
46,0.150075
46.05,5.590532E-02
46.1,-0.1335056
46.15,-0.2911685
46.2,-0.3803366
46.25,-0.4610132
46.3,-0.423494
46.35,-0.1969627
46.4,-5.038616E-02
46.45,0.1272641
46.5,0.1157271
46.55,0.1103776
46.6,7.694492E-02
46.65,-1.288123E-02
46.7,4.660032E-02
46.75,0.2947378
46.8,0.5766342
46.85,0.7604803
46.9,0.7563232
46.95,0.5610446
47,0.3479124
47.05,0.1731505
47.1,0.1275902
47.15,9.423878E-02
47.2,1.541038E-02
47.25,-0.1583354
47.3,-0.3551032
47.35,-0.3913605
47.4,-0.3416709
47.45,-2.233751E-02
47.5,0.1989165
47.55,8.445819E-02
47.6,-0.16626
47.65,-0.4088749
47.7,-0.5913638
47.75,-0.6313589
47.8,-0.6032133
47.85,-0.440621
47.9,-0.2631896
47.95,-0.2760648
48,-0.4052941
48.05,-0.5490475
48.1,-0.7187601
48.15,-0.6065442
48.2,-0.5835502
48.25,-0.4232784
48.3,-0.2790795
48.35,-0.2864866
48.4,-0.4695575
48.45,-0.6320806
48.5,-0.5533321
48.55,-0.1827248
48.6,0.2968583
48.65,0.5354313
48.7,0.5907896
48.75,0.2238722
48.8,-0.3066859
48.85,-0.5357559
48.9,-0.4652677
48.95,-0.2444071
49,2.094511E-02
49.05,0.1122595
49.1,0.1050824
49.15,3.677744E-02
49.2,1.849339E-02
49.25,-7.921898E-05
49.3,-0.1001858
49.35,-0.2416398
49.4,-0.374575
49.45,-0.4879582
49.5,-0.5592584
49.55,-0.5621655
49.6,-0.5305491
49.65,-0.5616845
49.7,-0.6617261
49.75,-0.6819832
49.8,-0.7868818
49.85,-0.8909791
49.9,-0.9911929
49.95,-1.00312
50,-0.922861
50.05,-0.7506711
50.1,-0.6031709
50.15,-0.5435977
50.2,-0.5630097
50.25,-0.6673909
50.3,-0.7892565
50.35,-0.9374479
50.4,-0.9707324
50.45,-0.9695345
50.5,-0.9105422
50.55,-0.9374285
50.6,-0.7882977
50.65,-0.5992147
50.7,-0.5281325
50.75,-0.5008528
50.8,-0.4692952
50.85,-0.5616032
50.9,-0.7505683
50.95,-0.9270462
51,-1.038803
51.05,-1.076122
51.1,-1.077579
51.15,-1.069175
51.2,-0.9930329
51.25,-0.9982452
51.3,-1.097612
51.35,-1.150422
51.4,-1.17147
51.45,-1.08454
51.5,-1.084527
51.55,-1.101943
51.6,-1.101277
51.65,-1.082142
51.7,-1.071861
51.75,-0.9813286
51.8,-0.7735637
51.85,-0.5702951
51.9,-0.504385
51.95,-0.5751531
52,-0.6856292
52.05,-0.8619043
52.1,-0.8844656
52.15,-0.7056228
52.2,-0.333368
52.25,-3.731351E-02
52.3,0.1608835
52.35,0.2852442
52.4,0.3416758
52.45,0.3558867
52.5,0.4684364
52.55,0.7722998
52.6,1.416901
52.65,2.710274
52.7,4.874919
52.75,7.839702
52.8,11.30798
52.85,14.70219
52.9,17.26175
52.95,18.62434
53,18.42242
53.05,16.67238
53.1,13.71918
53.15,10.20171
53.2,6.855837
53.25,4.021163
53.3,1.941139
53.35,0.7277237
53.4,9.391703E-02
53.45,-0.1262423
53.5,-3.319515E-03
53.55,0.2574044
53.6,0.4665853
53.65,0.4408608
53.7,0.1896414
53.75,-0.1124332
53.8,-0.4039371
53.85,-0.745197
53.9,-0.8587796
53.95,-0.831588
54,-0.8127385
54.05,-0.8253504
54.1,-0.8753326
54.15,-0.9264654
54.2,-0.9553733
54.25,-0.9536681
54.3,-0.9047531
54.35,-0.7657186
54.4,-0.5577288
54.45,-0.3937047
54.5,-0.2594974
54.55,-7.224862E-02
54.6,-1.507859E-02
54.65,-0.2404616
54.7,-0.2934298
54.75,-0.4072182
54.8,-0.3402708
54.85,-0.1908772
54.9,1.850035E-02
54.95,0.1905111
55,0.1785218
55.05,0.2105718
55.1,0.2964052
55.15,0.2809238
55.2,0.2792285
55.25,0.3674856
55.3,0.2960004
55.35,2.745134E-02
55.4,-0.270341
55.45,-0.4567623
55.5,-0.3472831
55.55,-0.3604405
55.6,-9.643842E-02
55.65,0.2845188
55.7,0.7868963
55.75,1.017645
55.8,0.9757853
55.85,0.9079736
55.9,0.7950945
55.95,0.535765
56,0.3358735
56.05,0.4214502
56.1,0.6401293
56.15,0.7327079
56.2,0.6144627
56.25,0.608445
56.3,0.5296369
56.35,0.3818049
56.4,0.5221809
56.45,0.8044489
56.5,1.100687
56.55,1.290727
56.6,1.43517
56.65,1.475313
56.7,1.265328
56.75,0.8955758
56.8,0.5571479
56.85,0.3622497
56.9,0.5384103
56.95,1.128588
57,1.439358
57.05,1.329015
57.1,1.059308
57.15,0.7730544
57.2,0.6589999
57.25,0.6507661
57.3,0.8295373
57.35,1.199079
57.4,1.374223
57.45,1.666819
57.5,2.052344
57.55,2.163503
57.6,1.994503
57.65,1.617001
57.7,1.104592
57.75,0.7637982
57.8,0.6623126
57.85,0.6337174
57.9,0.8376883
57.95,1.022361
58,1.222946
58.05,1.329865
58.1,1.107285
58.15,0.962469
58.2,0.7780401
58.25,0.9258444
58.3,1.253682
58.35,1.484704
58.4,1.443635
58.45,1.274273
58.5,1.205043
58.55,1.280771
58.6,1.383588
58.65,1.41079
58.7,1.617172
58.75,1.597069
58.8,1.433187
58.85,1.30871
58.9,1.362829
58.95,1.188066
59,1.139573
59.05,1.180313
59.1,1.436982
59.15,1.640766
59.2,1.639286
59.25,1.542366
59.3,1.597912
59.35,1.828326
59.4,2.02131
59.45,2.055312
59.5,1.846193
59.55,1.567969
59.6,1.31849
59.65,1.369604
59.7,1.498188
59.75,1.994906
59.8,2.232917
59.85,2.206373
59.9,2.187642
59.95,2.210034
60,2.190987
60.05,2.282295
60.1,2.413366
60.15,2.622987
60.2,3.127243
60.25,3.788705
60.3,4.282122
60.35,4.448557
60.4,4.23137
60.45,3.681778
60.5,3.068147
60.55,2.422534
60.6,2.397826
60.65,2.813048
60.7,3.559154
60.75,4.322008
60.8,4.977489
60.85,5.284064
60.9,5.052912
60.95,4.441463
61,4.032385
61.05,4.105444
61.1,4.228162
61.15,4.086089
61.2,3.666916
61.25,3.457569
61.3,3.46979
61.35,3.248993
61.4,3.496983
61.45,4.28632
61.5,4.776642
61.55,5.000285
61.6,5.284567
61.65,5.397661
61.7,5.450819
61.75,5.318155
61.8,5.141925
61.85,5.138559
61.9,5.017211
61.95,4.756151
62,4.774835
62.05,4.941157
62.1,5.243419
62.15,5.993304
62.2,6.553264
62.25,6.480441
62.3,6.067327
62.35,5.655476
62.4,5.375448
62.45,5.154539
62.5,5.040902
62.55,5.010633
62.6,4.851021
62.65,4.578551
62.7,4.532791
62.75,4.863739
62.8,5.302753
62.85,5.57919
62.9,5.786885
62.95,6.249418
63,6.745064
63.05,6.727519
63.1,6.882924
63.15,6.912399
63.2,6.629254
63.25,6.346632
63.3,6.515652
63.35,6.97988
63.4,7.359821
63.45,7.630768
63.5,7.85703
63.55,7.790255
63.6,7.292718
63.65,6.777544
63.7,6.523901
63.75,6.443395
63.8,6.206099
63.85,6.578783
63.9,7.06148
63.95,7.385174
64,7.501583
64.05,7.710271
64.1,7.895682
64.15,7.878252
64.2,7.755437
64.25,7.946945
64.3,8.419715
64.35,8.841586
64.4,8.95555
64.45,8.530852
64.5,7.928851
64.55,7.493197
64.6,7.44909
64.65,8.051119
64.7,8.57488
64.75,8.974524
64.8,8.994858
64.85,8.508143
64.9,8.195135
64.95,8.088325
65,8.134723
65.05,8.287066
65.1,8.339651
65.15,8.240739
65.2,7.926672
65.25,7.461091
65.3,7.42674
65.35,7.70267
65.4,8.059461
65.45,8.790253
65.5,9.458237
65.55,9.516043
65.6,9.475474
65.65,9.182271
65.7,9.244645
65.75,9.358574
65.8,9.03724
65.85,8.71379
65.9,8.696252
65.95,8.870985
66,9.222652
66.05,9.61309
66.1,9.695147
66.15,9.431669
66.2,8.523954
66.25,7.740335
66.3,7.69804
66.35,7.728775
66.4,7.575214
66.45,7.63896
66.5,7.759568
66.55,7.941298
66.6,7.947584
66.65,7.899015
66.7,7.879811
66.75,7.767654
66.8,7.503842
66.85,7.231307
66.9,7.049383
66.95,7.003948
67,7.260368
67.05,7.457051
67.1,7.777039
67.15,8.276002
67.2,8.120651
67.25,7.805584
67.3,7.78723
67.35,8.044734
67.4,8.380328
67.45,8.375789
67.5,8.304813
67.55,8.306087
67.6,8.06641
67.65,7.73105
67.7,7.700942
67.75,7.879965
67.8,8.016769
67.85,7.858327
67.9,7.621902
67.95,7.513396
68,7.752151
68.05,7.74409
68.1,8.009027
68.15,8.173166
68.2,7.905793
68.25,7.516552
68.3,7.338744
68.35,7.136379
68.4,6.957262
68.45,6.934841
68.5,7.190887
68.55,7.642068
68.6,7.938048
68.65,8.176373
68.7,8.251474
68.75,7.714383
68.8,7.206315
68.85,7.39914
68.9,7.981635
68.95,8.249516
69,8.209688
69.05,7.881001
69.1,7.331054
69.15,6.90667
69.2,6.881953
69.25,7.149178
69.3,7.361566
69.35,7.33041
69.4,7.055671
69.45,6.5007
69.5,5.914402
69.55,6.088899
69.6,6.762008
69.65,7.383249
69.7,7.79014
69.75,7.729024
69.8,7.619863
69.85,7.58643
69.9,7.74578
69.95,8.142526
70,8.21067
70.05,7.791383
70.1,7.412387
70.15,7.368997
70.2,7.535426
70.25,7.677502
70.3,7.440033
70.35,7.014994
70.4,6.958432
70.45,6.927727
70.5,6.931198
70.55,7.144335
70.6,6.814481
70.65,6.276598
70.7,5.624661
70.75,5.136261
70.8,5.02536
70.85,5.033841
70.9,5.113893
70.95,5.354426
71,5.61145
71.05,5.724649
71.1,5.749595
71.15,5.698537
71.2,5.545989
71.25,5.558687
71.3,5.977098
71.35,6.779563
71.4,7.443053
71.45,7.577901
71.5,7.137015
71.55,6.826751
71.6,6.59835
71.65,6.314269
71.7,6.060266
71.75,5.986214
71.8,6.212269
71.85,6.568997
71.9,6.663269
71.95,6.433164
72,6.166108
72.05,5.998993
72.1,5.859168
72.15,6.019427
72.2,6.379951
72.25,6.519636
72.3,6.227063
72.35,5.610703
72.4,5.575098
72.45,6.143119
72.5,6.365722
72.55,6.281691
72.6,6.107997
72.65,5.7405
72.7,5.290176
72.75,4.956167
72.8,4.799524
72.85,5.011771
72.9,5.050502
72.95,5.146741
73,5.901291
73.05,6.108705
73.1,5.875884
73.15,5.38232
73.2,4.736557
73.25,4.21396
73.3,3.69403
73.35,3.253594
73.4,3.447582
73.45,3.99809
73.5,4.530538
73.55,5.168071
73.6,5.562897
73.65,5.426613
73.7,5.216704
73.75,5.229506
73.8,5.572674
73.85,5.992615
73.9,5.515663
73.95,5.247702
74,4.632701
74.05,3.875977
74.1,3.668073
74.15,3.900968
74.2,3.934939
74.25,3.792168
74.3,3.771419
74.35,3.952036
74.4,4.147859
74.45,4.063439
74.5,3.973731
74.55,4.167208
74.6,4.61095
74.65,4.794994
74.7,4.994072
74.75,4.919491
74.8,4.728679
74.85,4.453604
74.9,4.270551
74.95,4.149929
75,3.822432
75.05,3.188528
75.1,2.533855
75.15,2.219023
75.2,2.238257
75.25,2.324434
75.3,2.437022
75.35,2.661767
75.4,2.762804
75.45,2.997316
75.5,3.531342
75.55,3.850308
75.6,3.436612
75.65,2.711163
75.7,2.437875
75.75,2.746404
75.8,3.171875
75.85,3.745823
75.9,4.175967
75.95,4.027637
76,3.378344
76.05,2.741755
76.1,2.549257
76.15,2.707753
76.2,2.684839
76.25,2.488333
76.3,2.48167
76.35,2.362591
76.4,2.48842
76.45,2.342063
76.5,2.219441
76.55,2.370956
76.6,2.482436
76.65,2.589859
76.7,2.677212
76.75,2.598068
76.8,2.633478
76.85,2.804171
76.9,2.891613
76.95,3.330609
77,3.9664
77.05,3.981221
77.1,3.444363
77.15,2.627303
77.2,2.195659
77.25,2.717798
77.3,2.934657
77.35,3.116999
77.4,3.286597
77.45,2.904169
77.5,2.195885
77.55,1.734439
77.6,2.168907
77.65,3.151402
77.7,3.462601
77.75,2.871044
77.8,2.339736
77.85,2.210029
77.9,2.556689
77.95,2.606992
78,2.97316
78.05,3.521917
78.1,2.948124
78.15,1.827562
78.2,1.261695
78.25,1.045132
78.3,0.9061803
78.35,0.5675665
78.4,0.6265814
78.45,1.300268
78.5,1.874991
78.55,2.065393
78.6,2.197411
78.65,2.014923
78.7,1.571691
78.75,1.453135
78.8,1.792411
78.85,2.802516
78.9,3.388421
78.95,3.195887
79,3.382205
79.05,3.134472
79.1,2.810541
79.15,2.616174
79.2,2.403132
79.25,2.054832
79.3,1.340626
79.35,0.6914862
79.4,0.8927898
79.45,1.393108
79.5,1.363508
79.55,1.529967
79.6,1.825555
79.65,1.970326
79.7,2.162577
79.75,2.412405
79.8,2.688191
79.85,2.69627
79.9,2.366409
79.95,2.124919
80,1.817065
80.05,1.209423
80.1,0.6548393
80.15,0.4148013
80.2,0.3791027
80.25,0.7536906
80.3,1.764052
80.35,2.685154
80.4,3.109476
80.45,3.11093
80.5,2.858139
80.55,2.788327
80.6,2.427644
80.65,2.40149
80.7,2.667945
80.75,2.531495
80.8,1.957731
80.85,1.205654
80.9,0.7943923
80.95,0.7956027
81,0.9986004
81.05,1.338052
81.1,1.541436
81.15,1.268589
81.2,0.8082284
81.25,0.4128884
81.3,0.5565802
81.35,1.192021
81.4,1.202396
81.45,1.091617
81.5,0.6896898
81.55,0.1265317
81.6,-0.2337463
81.65,-4.325111E-02
81.7,0.5889372
81.75,1.141556
81.8,1.542138
81.85,2.079079
81.9,2.618112
81.95,2.740957
82,2.441341
82.05,2.133522
82.1,1.886512
82.15,1.289696
82.2,0.7138594
82.25,0.4974854
82.3,0.5337086
82.35,0.8514147
82.4,1.188015
82.45,1.386841
82.5,1.484895
82.55,1.428195
82.6,1.156625
82.65,1.052945
82.7,1.530615
82.75,2.164367
82.8,2.197509
82.85,1.786428
82.9,1.17983
82.95,0.4334272
83,-8.744812E-02
83.05,-0.1882145
83.1,0.3786089
83.15,1.139804
83.2,1.307161
83.25,1.314056
83.3,1.197632
83.35,1.041755
83.4,0.9894009
83.45,0.9669962
83.5,0.9960128
83.55,1.071936
83.6,0.8787345
83.65,0.458607
83.7,0.2374117
83.75,0.2960148
83.8,0.6671317
83.85,0.6829506
83.9,0.3563959
83.95,0.1426904
84,-0.1192774
84.05,-0.2248976
84.1,-0.3638321
84.15,-0.3868838
84.2,-0.3873664
84.25,-0.3970413
84.3,-0.2173349
84.35,0.1276276
84.4,0.3009704
84.45,0.1917367
84.5,5.333792E-02
84.55,2.960608E-03
84.6,0.1479574
84.65,6.137566E-02
84.7,0.2170077
84.75,0.3951487
84.8,0.3279893
84.85,0.4986023
84.9,0.9993582
84.95,1.348975
85,1.303604
85.05,0.888562
85.1,0.4357027
85.15,0.3197756
85.2,0.5209613
85.25,0.7467896
85.3,0.9285327
85.35,1.180581
85.4,1.488301
85.45,1.454737
85.5,0.9913025
85.55,0.6885732
85.6,0.5565063
85.65,0.6348882
85.7,0.7596967
85.75,0.9387408
85.8,1.027902
85.85,0.6641651
85.9,0.1779005
85.95,6.183631E-02
86,0.2674452
86.05,0.7693904
86.1,1.542452
86.15,1.837425
86.2,1.667552
86.25,1.212945
86.3,0.6238172
86.35,0.6945938
86.4,0.9170291
86.45,1.590955
86.5,2.424852
86.55,2.607199
86.6,2.165024
86.65,1.503142
86.7,0.9082929
86.75,0.6044388
86.8,0.6972225
86.85,1.46718
86.9,2.688672
86.95,3.206435
87,2.96012
87.05,2.692031
87.1,2.886261
87.15,2.755436
87.2,2.287981
87.25,1.712903
87.3,1.045092
87.35,0.1938628
87.4,-0.2936912
87.45,-0.175135
87.5,0.2395274
87.55,0.2685716
87.6,-4.169829E-02
87.65,-0.3024
87.7,-0.273704
87.75,0.1048824
87.8,0.4384395
87.85,0.4946305
87.9,0.2880395
87.95,0.2609276
88,0.1028442
88.05,0.6035776
88.1,0.7509985
88.15,1.021551
88.2,1.111441
88.25,1.246203
88.3,1.310452
88.35,1.062687
88.4,0.4570775
88.45,-0.2320393
88.5,-0.7861145
88.55,-0.8957481
88.6,-0.3515133
88.65,0.1144767
88.7,0.2364372
88.75,0.2426211
88.8,3.349932E-02
88.85,-0.2236774
88.9,-0.3923022
88.95,-0.6201585
89,-0.6454173
89.05,-0.7269724
89.1,-0.9632003
89.15,-0.8769656
89.2,-0.6294119
89.25,-0.187355
89.3,0.4778194
89.35,0.977002
89.4,1.188633
89.45,1.254311
89.5,0.8016307
89.55,8.288763E-02
89.6,-0.6180852
89.65,-0.9925191
89.7,-0.634752
89.75,-0.3044057
89.8,-0.2464454
89.85,-1.172447E-02
89.9,0.2829779
89.95,0.33316
90,0.2317086
90.05,0.1286093
90.1,-5.826244E-02
90.15,-0.4404869
90.2,-0.8495606
90.25,-0.8820325
90.3,-0.3770374
90.35,0.181579
90.4,0.2210201
90.45,2.210666E-02
90.5,-0.309494
90.55,-0.7564949
90.6,-0.9958873
90.65,-0.9254621
90.7,-0.5806208
90.75,-0.6302076
90.8,-0.889435
90.85,-0.7509468
90.9,-0.3616209
90.95,-1.450281E-02
91,0.4125634
91.05,0.9685056
91.1,1.321813
91.15,1.166266
91.2,0.6505517
91.25,0.494685
91.3,0.1354285
91.35,-0.6965951
91.4,-1.088584
91.45,-0.8729886
91.5,-0.4200304
91.55,-5.078623E-02
91.6,0.179603
91.65,0.1905923
91.7,-0.3821462
91.75,-1.282501
91.8,-1.796994
91.85,-1.726358
91.9,-1.368714
91.95,-0.9621156
92,-0.7855419
92.05,-0.8102311
92.1,-1.099194
92.15,-1.581069
92.2,-1.84005
92.25,-1.716166
92.3,-1.200089
92.35,-0.5950686
92.4,-0.168589
92.45,4.667664E-02
92.5,0.0595967
92.55,-0.3091506
92.6,-0.928067
92.65,-1.260535
92.7,-1.013755
92.75,-0.4796687
92.8,-9.297508E-02
92.85,-0.0269135
92.9,-0.1560902
92.95,-8.904885E-02
93,-0.2485809
93.05,-0.46189
93.1,-0.5654549
93.15,-0.461791
93.2,-0.3378561
93.25,-0.1839288
93.3,0.1498173
93.35,0.5850175
93.4,0.7692336
93.45,0.5170285
93.5,-9.343188E-02
93.55,-0.8763517
93.6,-1.556475
93.65,-1.899572
93.7,-1.865395
93.75,-1.322755
93.8,-0.2352994
93.85,1.081577
93.9,1.742229
93.95,1.448297
94,0.5767875
94.05,-0.1878965
94.1,-1.047071
94.15,-1.565572
94.2,-1.365486
94.25,-0.9189115
94.3,-0.8360841
94.35,-1.085441
94.4,-1.176307
94.45,-0.9754667
94.5,-1.022563
94.55,-1.1978
94.6,-1.010838
94.65,-0.6891629
94.7,-0.7661327
94.75,-0.7059712
94.8,-0.5994204
94.85,-0.9017991
94.9,-1.678185
94.95,-2.123559
95,-2.131464
95.05,-1.651571
95.1,-1.027349
95.15,-0.6682714
95.2,-0.7133482
95.25,-1.155933
95.3,-1.644725
95.35,-1.890456
95.4,-2.069774
95.45,-2.100869
95.5,-1.624969
95.55,-1.162104
95.6,-0.7789044
95.65,-0.5024683
95.7,-0.4581412
95.75,-0.6813631
95.8,-1.217996
95.85,-1.6401
95.9,-1.624825
95.95,-1.163065
96,-0.6183308
96.05,-0.3644869
96.1,-0.4159342
96.15,-0.7076323
96.2,-0.8530038
96.25,-0.5103083
96.3,-0.1214778
96.35,0.4013515
96.4,0.4661589
96.45,-7.927304E-04
96.5,-0.5179183
96.55,-0.7723308
96.6,-0.8600218
96.65,-0.9244056
96.7,-1.079767
96.75,-1.19425
96.8,-1.175305
96.85,-0.9658991
96.9,-0.6059489
96.95,-0.3650661
97,-0.3168962
97.05,-0.8001444
97.1,-1.272511
97.15,-0.9937815
97.2,-0.7423032
97.25,-0.9864345
97.3,-0.9875895
97.35,-0.8923753
97.4,-0.5475032
97.45,-0.4106789
97.5,-0.4208793
97.55,-0.7006806
97.6,-1.261201
97.65,-1.677403
97.7,-1.505448
97.75,-0.9602551
97.8,-0.7601256
97.85,-0.9241629
97.9,-1.240303
97.95,-1.644726
98,-1.97406
98.05,-1.81391
98.1,-1.407037
98.15,-0.8391104
98.2,-0.3197173
98.25,0.3004709
98.3,0.7750813
98.35,0.599795
98.4,-4.241328E-02
98.45,-0.5180023
98.5,-0.5603209
98.55,-0.2423438
98.6,0.2003794
98.65,0.2329367
98.7,-0.1485095
98.75,-0.8594431
98.8,-1.51844
98.85,-1.920727
98.9,-1.869198
98.95,-1.636617
99,-1.163365
99.05,-0.7224283
99.1,-0.2363541
99.15,0.1155657
99.2,0.2687757
99.25,0.26055
99.3,0.192418
99.35,2.118498E-02
99.4,-0.2843949
99.45,-0.4601582
99.5,-0.5031687
99.55,-0.6218382
99.6,-0.9356852
99.65,-1.198331
99.7,-1.608281
99.75,-1.671389
99.8,-1.595853
99.85,-1.62744
99.9,-1.862815
99.95,-2.297533
100,-2.425607
100.05,-2.120547
100.1,-1.364019
100.15,-0.1820045
100.2,0.7549278
100.25,0.7476988
100.3,0.2114193
100.35,-0.3914363
100.4,-1.166762
100.45,-1.505036
100.5,-1.130203
100.55,-0.358785
100.6,-0.1099806
100.65,-0.3467917
100.7,-0.2715597
100.75,1.517624E-03
100.8,-0.2357764
100.85,-0.5670695
100.9,-0.6094245
100.95,-0.7819995
101,-1.245449
101.05,-1.348228
101.1,-0.5989831
101.15,0.6022755
101.2,1.406873
101.25,1.434973
101.3,1.052528
101.35,0.5835664
101.4,-0.1944335
101.45,-0.6148378
101.5,-0.61438
101.55,-0.4562938
101.6,-0.4119793
101.65,-0.6172286
101.7,-0.8861442
101.75,-1.074269
101.8,-1.341412
101.85,-1.744795
101.9,-2.073924
101.95,-2.197979
102,-2.077454
102.05,-1.886431
102.1,-1.747165
102.15,-1.572257
102.2,-1.203474
102.25,-0.4305836
102.3,-0.2111701
102.35,-0.5057392
102.4,-0.7707227
102.45,-0.7473568
102.5,-0.8155218
102.55,-1.110614
102.6,-1.464032
102.65,-1.74627
102.7,-2.063136
102.75,-2.424718
102.8,-2.376546
102.85,-1.803422
102.9,-1.39351
102.95,-1.144907
103,-1.006561
103.05,-1.300871
103.1,-1.060743
103.15,-0.648994
103.2,-0.4657772
103.25,-0.3677712
103.3,-0.2922231
103.35,-0.1670059
103.4,-0.3440409
103.45,-0.8797112
103.5,-1.301456
103.55,-1.535598
103.6,-1.974666
103.65,-2.436887
103.7,-2.561811
103.75,-2.574048
103.8,-2.71478
103.85,-2.871693
103.9,-2.611954
103.95,-2.279343
104,-2.097899
104.05,-2.073615
104.1,-1.863053
104.15,-1.426417
104.2,-0.5901475
104.25,0.1754297
104.3,0.416952
104.35,-1.804799E-02
104.4,-0.9419922
104.45,-1.519768
104.5,-1.389258
104.55,-0.818702
104.6,-0.1853853
104.65,2.343199E-02
104.7,-0.3854857
104.75,-0.4748169
104.8,-0.3480164
104.85,9.750503E-02
104.9,0.5960969
104.95,0.9851527
105,0.8739554
105.05,7.597629E-03
105.1,-0.9559957
105.15,-1.500254
105.2,-1.74939
105.25,-1.812044
105.3,-1.718936
105.35,-1.345925
105.4,-1.004257
105.45,-1.13506
105.5,-1.289429
105.55,-0.9846339
105.6,-1.021574
105.65,-0.974238
105.7,-1.14129
105.75,-1.285627
105.8,-1.234128
105.85,-1.230489
105.9,-1.477589
105.95,-1.869176
106,-2.174227
106.05,-2.247972
106.1,-2.103618
106.15,-1.732983
106.2,-0.9425992
106.25,-0.6585138
106.3,-1.046394
106.35,-1.831075
106.4,-2.403095
106.45,-2.89903
106.5,-3.135023
106.55,-2.93751
106.6,-2.378449
106.65,-1.85672
106.7,-1.13073
106.75,-0.5675168
106.8,-0.3741231
106.85,-0.2034008
106.9,-4.509579E-02
106.95,-7.602626E-02
107,-0.2210745
107.05,-0.5328151
107.1,-0.8144919
107.15,-1.039066
107.2,-1.332041
107.25,-1.416286
107.3,-1.155397
107.35,-0.8568887
107.4,-0.27448
107.45,0.162476
107.5,0.4645727
107.55,0.6062806
107.6,0.4207141
107.65,-0.1476019
107.7,-0.7464973
107.75,-0.9547528
107.8,-0.9725155
107.85,-1.121187
107.9,-1.442884
107.95,-1.813347
108,-2.261032
108.05,-2.739934
108.1,-2.890568
108.15,-2.486007
108.2,-2.057047
108.25,-1.65971
108.3,-1.142356
108.35,-0.7021271
108.4,-0.4279467
108.45,-0.3788428
108.5,-0.4349946
108.55,-0.3798586
108.6,-0.2524347
108.65,-0.1025989
108.7,-5.354354E-02
108.75,-0.045501
108.8,6.224509E-02
108.85,-0.2594839
108.9,-0.8355384
108.95,-1.526823
109,-1.635864
109.05,-1.480731
109.1,-1.124088
109.15,-0.6867457
109.2,-0.436772
109.25,-0.4129748
109.3,-0.2946451
109.35,1.771628E-03
109.4,0.2962106
109.45,0.4063843
109.5,-0.184747
109.55,-1.062652
109.6,-2.019655
109.65,-2.407003
109.7,-2.24179
109.75,-1.764121
109.8,-1.127093
109.85,-0.8304579
109.9,-1.061026
109.95,-1.100261
110,-0.917106
110.05,-0.6772242
110.1,-0.6602951
110.15,-0.8042238
110.2,-0.958167
110.25,-1.273573
110.3,-1.541179
110.35,-1.396205
110.4,-0.8327202
110.45,-0.6769997
110.5,-0.7848499
110.55,-0.9495478
110.6,-1.233049
110.65,-1.79778
110.7,-1.932026
110.75,-1.681514
110.8,-1.069427
110.85,-0.2311915
110.9,0.610471
110.95,1.074931
111,0.923391
111.05,0.3748099
111.1,-0.1542819
111.15,-0.4462745
111.2,-0.3648991
111.25,0.4197829
111.3,1.114443
111.35,1.578615
111.4,1.849883
111.45,1.603709
111.5,0.9901492
111.55,-0.1253894
111.6,-1.121559
111.65,-1.912066
111.7,-2.225933
111.75,-1.911615
111.8,-1.164549
111.85,3.200997E-02
111.9,1.691548
111.95,3.307554
112,5.018265
112.05,7.695562
112.1,9.946921
112.15,14.79501
112.2,20.75978
112.25,26.17467
112.3,32.54658
112.35,40.0018
112.4,48.7037
112.45,56.94544
112.5,66.93803
112.55,78.52434
112.6,90.14801
112.65,101.3007
112.7,111.4179
112.75,119.8645
112.8,126.9046
112.85,133.1546
112.9,141.9668
112.95,150.2939
113,151.0846
113.05,149.9796
113.1,145.1853
113.15,138.4032
113.2,132.4413
113.25,123.4092
113.3,112.7894
113.35,102.0213
113.4,91.07688
113.45,81.69862
113.5,74.53481
113.55,68.39288
113.6,63.18509
113.65,57.68337
113.7,50.88327
113.75,45.58435
113.8,40.65319
113.85,32.93861
113.9,26.61495
113.95,22.78379
114,20.01969
114.05,17.60818
114.1,15.7324
114.15,13.93397
114.2,11.979
114.25,10.01936
114.3,8.981288
114.35,9.432117
114.4,10.18017
114.45,9.804714
114.5,8.71547
114.55,7.310518
114.6,5.100289
114.65,2.971465
114.7,1.353337
114.75,1.321213
114.8,1.668498
114.85,1.444308
114.9,0.9001563
114.95,0.528604
115,0.6274136
115.05,0.7856576
115.1,0.6888567
115.15,0.5331003
115.2,0.3371733
115.25,6.326932E-02
115.3,0.1727327
115.35,0.4768053
115.4,0.6267961
115.45,0.7603875
115.5,0.7184665
115.55,0.5221217
115.6,0.5259249
115.65,0.3463138
115.7,-8.495415E-02
115.75,-0.7443515
115.8,-1.407138
115.85,-1.787704
115.9,-1.642443
115.95,-1.364687
116,-1.36705
116.05,-1.559754
116.1,-1.890226
116.15,-2.363381
116.2,-2.818232
116.25,-3.169193
116.3,-3.235155
116.35,-2.928413
116.4,-3.166577
116.45,-3.770056
116.5,-4.033213
116.55,-4.04653
116.6,-4.006053
116.65,-3.858047
116.7,-3.685835
116.75,-3.558983
116.8,-3.589807
116.85,-3.651304
116.9,-3.522756
116.95,-3.47003
117,-3.687647
117.05,-4.008013
117.1,-4.202307
117.15,-4.511281
117.2,-4.492821
117.25,-4.279614
117.3,-4.119423
117.35,-4.2885
117.4,-4.525742
117.45,-4.761001
117.5,-5.032029
117.55,-5.305194
117.6,-5.312292
117.65,-5.041783
117.7,-4.7927
117.75,-4.713908
117.8,-4.780362
117.85,-4.857407
117.9,-4.87047
117.95,-4.871313
118,-4.910623
118.05,-4.584235
118.1,-4.162621
118.15,-4.087471
118.2,-4.150705
118.25,-4.168863
118.3,-4.105519
118.35,-3.98417
118.4,-3.978956
118.45,-4.028734
118.5,-4.018593
118.55,-4.105762
118.6,-4.354941
118.65,-4.563842
118.7,-4.777444
118.75,-4.972121
118.8,-5.100852
118.85,-4.994924
118.9,-4.658721
118.95,-4.47196
119,-4.539919
119.05,-4.706846
119.1,-4.807488
119.15,-4.937139
119.2,-4.928818
119.25,-4.779119
119.3,-4.694283
119.35,-4.75877
119.4,-4.85318
119.45,-4.84609
119.5,-4.749456
119.55,-4.54217
119.6,-4.497549
119.65,-4.320657
119.7,-4.462089
119.75,-4.670767
119.8,-4.884149
119.85,-5.074292
119.9,-5.121617
119.95,-4.937716
120,-4.800212
120.05,-4.737462
120.1,-4.666005
120.15,-4.579246
120.2,-4.485005
120.25,-4.426347
120.3,-4.482112
120.35,-4.680542
120.4,-5.070554
120.45,-5.407347
120.5,-5.367606
120.55,-5.24922
120.6,-5.14188
120.65,-5.031609
120.7,-5.101859
120.75,-5.310144
120.8,-5.45926
120.85,-5.511885
120.9,-5.537633
120.95,-5.563616
121,-5.494753
121.05,-5.281719
121.1,-5.060945
121.15,-4.932458
121.2,-4.86736
121.25,-4.889787
121.3,-5.101456
121.35,-5.133008
121.4,-5.016904
121.45,-5.016809
121.5,-5.153187
121.55,-5.350596
121.6,-5.493265
121.65,-5.623018
121.7,-5.662845
121.75,-5.578906
121.8,-5.558815
121.85,-5.67565
121.9,-5.76103
121.95,-5.749262
122,-5.693257
122.05,-5.641379
122.1,-5.456267
122.15,-5.105471
122.2,-4.963824
122.25,-4.936936
122.3,-4.861845
122.35,-4.756733
122.4,-4.814565
122.45,-5.024986
122.5,-5.266994
122.55,-5.528545
122.6,-5.786072
122.65,-5.75188
122.7,-5.370557
122.75,-5.003176
122.8,-4.763281
122.85,-4.733186
122.9,-4.951876
122.95,-5.196805
123,-5.449363
123.05,-5.61896
123.1,-5.527073
123.15,-5.308526
123.2,-4.772551
123.25,-4.108871
123.3,-3.58038
123.35,-3.268711
123.4,-3.29968
123.45,-3.678095
123.5,-4.22
123.55,-4.770264
123.6,-5.254292
123.65,-5.596088
123.7,-5.817198
123.75,-5.957217
123.8,-5.952261
123.85,-5.702958
123.9,-5.373968
123.95,-5.231117
124,-5.205955
124.05,-5.284801
124.1,-5.435823
124.15,-5.726788
124.2,-5.965557
124.25,-5.980082
124.3,-5.86111
124.35,-5.758754
124.4,-5.691066
124.45,-5.657868
124.5,-5.671503
124.55,-5.585815
124.6,-5.59206
124.65,-5.542233
124.7,-5.502471
124.75,-5.613923
124.8,-5.812796
124.85,-5.90877
124.9,-5.87367
124.95,-5.646895
125,-5.429281
125.05,-5.344169
125.1,-5.420124
125.15,-5.623771
125.2,-5.849969
125.25,-5.93811
125.3,-5.764963
125.35,-5.467951
125.4,-5.214928
125.45,-5.042915
125.5,-5.086083
125.55,-5.332445
125.6,-5.667949
125.65,-5.860836
125.7,-5.92758
125.75,-5.994925
125.8,-6.074878
125.85,-6.087513
125.9,-6.082154
125.95,-6.112314
126,-6.137787
126.05,-6.143379
126.1,-6.168036
126.15,-6.21136
126.2,-6.245333
126.25,-6.111332
126.3,-5.942594
126.35,-5.750428
126.4,-5.569646
126.45,-5.422563
126.5,-5.330794
126.55,-5.342152
126.6,-5.419559
126.65,-5.50275
126.7,-5.65688
126.75,-5.82667
126.8,-5.899046
126.85,-5.922288
126.9,-5.997372
126.95,-6.119923
127,-6.275392
127.05,-6.352427
127.1,-6.40537
127.15,-6.320637
127.2,-6.084836
127.25,-5.952756
127.3,-5.951495
127.35,-5.956888
127.4,-5.990355
127.45,-5.992491
127.5,-5.952931
127.55,-5.903
127.6,-5.884553
127.65,-5.938478
127.7,-6.004036
127.75,-6.003108
127.8,-6.021226
127.85,-6.05962
127.9,-6.054643
127.95,-6.057652
128,-6.102921
128.05,-6.143098
128.1,-6.211168
128.15,-6.232653
128.2,-6.228409
128.25,-6.207581
128.3,-6.18336
128.35,-6.185217
128.4,-6.146952
128.45,-6.012134
128.5,-5.830819
128.55,-5.705549
128.6,-5.692353
128.65,-5.770983
128.7,-5.932822
128.75,-6.142845
128.8,-6.237721
128.85,-6.153651
128.9,-6.043463
128.95,-5.937249
129,-5.869668
129.05,-5.80048
129.1,-5.807891
129.15,-5.879139
129.2,-5.977212
129.25,-6.049583
129.3,-6.03441
129.35,-5.937637
129.4,-5.856194
129.45,-5.856987
129.5,-5.78984
129.55,-5.363947
129.6,-5.024932
129.65,-5.059029
129.7,-5.354328
129.75,-5.824026
129.8,-6.256677
129.85,-6.545307
129.9,-6.582304
129.95,-6.383015
130,-6.297506
130.05,-6.357237
130.1,-6.487056
130.15,-6.476562
130.2,-6.235904
130.25,-6.02763
130.3,-5.933451
130.35,-5.889085
130.4,-5.864429
130.45,-5.890144
130.5,-5.934753
130.55,-6.078537
130.6,-6.074292
130.65,-6.20567
130.7,-6.312348
130.75,-6.355978
130.8,-6.307606
130.85,-6.220429
130.9,-6.155867
130.95,-6.130426
131,-6.130172
131.05,-6.129869
131.1,-6.132751
131.15,-6.176458
131.2,-6.213515
131.25,-6.18352
131.3,-6.16749
131.35,-6.262676
131.4,-6.331002
131.45,-6.406778
131.5,-6.388376
131.55,-6.426047
131.6,-6.495882
131.65,-6.582442
131.7,-6.642361
131.75,-6.670319
131.8,-6.595732
131.85,-6.335842
131.9,-6.015785
131.95,-5.873135
132,-5.931118
132.05,-6.061849
132.1,-6.25982
132.15,-6.497861
132.2,-6.669501
132.25,-6.603098
132.3,-6.455184
132.35,-6.432224
132.4,-6.429414
132.45,-6.444579
132.5,-6.523985
132.55,-6.611766
132.6,-6.640949
132.65,-6.597939
132.7,-6.477855
132.75,-6.273986
132.8,-6.037229
132.85,-5.888576
132.9,-5.900055
132.95,-6.096998
133,-6.44722
133.05,-6.635714
133.1,-6.72365
133.15,-6.809378
133.2,-6.778925
133.25,-6.744203
133.3,-6.63857
133.35,-6.432849
133.4,-6.234275
133.45,-6.104776
133.5,-6.118846
133.55,-6.310366
133.6,-6.509542
133.65,-6.615035
133.7,-6.734542
133.75,-6.815727
133.8,-6.852605
133.85,-6.922503
133.9,-6.906876
133.95,-6.849864
134,-6.761813
134.05,-6.685227
134.1,-6.633282
134.15,-6.583365
134.2,-6.519901
134.25,-6.481735
134.3,-6.509768
134.35,-6.589908
134.4,-6.676751
134.45,-6.734925
134.5,-6.742232
134.55,-6.715473
134.6,-6.736488
134.65,-6.7207
134.7,-6.741263
134.75,-6.722149
134.8,-6.637272
134.85,-6.512599
134.9,-6.415084
134.95,-6.37214
135,-6.387908
135.05,-6.431863
135.1,-6.540916
135.15,-6.680732
135.2,-6.777027
135.25,-6.831158
135.3,-6.820664
135.35,-6.777377
135.4,-6.664
135.45,-6.511712
135.5,-6.505859
135.55,-6.489722
135.6,-6.416028
135.65,-6.39534
135.7,-6.42427
135.75,-6.486342
135.8,-6.555772
135.85,-6.641349
135.9,-6.774524
135.95,-6.877242
136,-6.889719
136.05,-6.850265
136.1,-6.770282
136.15,-6.677004
136.2,-6.651717
136.25,-6.680006
136.3,-6.786894
136.35,-6.942627
136.4,-7.008842
136.45,-6.943723
136.5,-6.918558
136.55,-6.827737
136.6,-6.670002
136.65,-6.506844
136.7,-6.420366
136.75,-6.453072
136.8,-6.609259
136.85,-6.841877
136.9,-7.074965
136.95,-7.235447
137,-7.238134
137.05,-7.139665
137.1,-6.95103
137.15,-6.770468
137.2,-6.760731
137.25,-6.721991
137.3,-6.718727
137.35,-6.815558
137.4,-6.871066
137.45,-6.902033
137.5,-6.93457
137.55,-7.011111
137.6,-7.100613
137.65,-7.128729
137.7,-7.150325
137.75,-7.219875
137.8,-7.186796
137.85,-7.052282
137.9,-6.9699
137.95,-6.892074
138,-6.897095
 
Alignment,On
