Data File Name,2100 expert_High Sensitivity DNA Assay_DE34904066_2015-05-22_14-28-17.xad
Data File Path,C:\Program Files (x86)\Agilent\2100 bioanalyzer\2100 expert\Data\2015-05-22
Date Created,"Friday, May 22, 2015 6:28:16 PM"
Date Last Modified,"Wednesday, May 27, 2015 3:00:00 PM"
Version Created,B.02.08.SI648
Version Last Modified,B.02.08.SI648
 
Assay Name,High Sensitivity DNA
Assay Path,C:\Program Files (x86)\Agilent\2100 bioanalyzer\2100 expert\assays\dsDNA
Assay Title,High Sensitivity DNA Assay
Assay Version,1.03
 
Number of Samples Run,11
 
Sample Name,8C #37 post amp 1:20
Number of Events,2121
 
Time,Value
32,0.283783
32.05,0.283783
32.1,0.283783
32.15,0.283783
32.2,0.283783
32.25,0.283783
32.3,0.283783
32.35,0.283783
32.4,0.283783
32.45,0.283783
32.5,0.283783
32.55,0.283783
32.6,0.283783
32.65,0.283783
32.7,0.283783
32.75,0.283783
32.8,0.283783
32.85,0.283783
32.9,0.283783
32.95,0.283783
33,0.2030302
33.05,0.1614248
33.1,0.1470069
33.15,8.187731E-02
33.2,9.553963E-02
33.25,0.2122553
33.3,0.1121015
33.35,0.0571425
33.4,3.163284E-02
33.45,0.1775991
33.5,0.1590648
33.55,5.743831E-02
33.6,-3.248718E-02
33.65,-7.312758E-02
33.7,-0.1351562
33.75,-0.2033527
33.8,-0.2620702
33.85,-0.3315982
33.9,-0.330296
33.95,-0.2605906
34,-0.1682761
34.05,-8.551762E-02
34.1,-0.1022134
34.15,-0.2331699
34.2,-0.2979667
34.25,-0.2840604
34.3,-0.2291892
34.35,-0.2193153
34.4,-0.1180611
34.45,3.291711E-02
34.5,5.481882E-02
34.55,5.145012E-02
34.6,5.646608E-02
34.65,0.1159841
34.7,6.892996E-02
34.75,1.334543E-02
34.8,2.196472E-02
34.85,9.425483E-02
34.9,1.863618E-02
34.95,-3.909827E-02
35,-4.944653E-02
35.05,-0.1445776
35.1,-0.2585895
35.15,-0.2639552
35.2,-0.2181879
35.25,-0.2550817
35.3,-0.2973164
35.35,-0.2315269
35.4,-0.2012752
35.45,-0.2142342
35.5,-0.2098455
35.55,-0.181408
35.6,-0.1921197
35.65,-0.163913
35.7,-0.1130922
35.75,-0.1576421
35.8,-0.2161705
35.85,-0.2316363
35.9,-0.3112243
35.95,-0.2775501
36,-0.1753554
36.05,-0.1268545
36.1,-0.1628162
36.15,-0.223898
36.2,-0.3383857
36.25,-0.4126763
36.3,-0.5363687
36.35,-0.5008242
36.4,-0.4648579
36.45,-0.4410432
36.5,-0.4995456
36.55,-0.5185817
36.6,-0.6136066
36.65,-0.701504
36.7,-0.7671579
36.75,-0.7243973
36.8,-0.569824
36.85,-0.5082415
36.9,-0.4956991
36.95,-0.4341614
37,-0.3918689
37.05,-0.2862095
37.1,-0.2625256
37.15,-0.2419451
37.2,-0.2567424
37.25,-0.3465397
37.3,-0.3804354
37.35,-0.3734219
37.4,-0.3534589
37.45,-0.4630699
37.5,-0.4326518
37.55,-0.3526394
37.6,-0.3601544
37.65,-0.4770066
37.7,-0.540898
37.75,-0.5997579
37.8,-0.671208
37.85,-0.75098
37.9,-0.7098162
37.95,-0.7748598
38,-0.6705084
38.05,-0.5551984
38.1,-0.3510854
38.15,-0.3345448
38.2,-0.4475816
38.25,-0.5040788
38.3,-0.4192455
38.35,-0.2974479
38.4,-0.2779935
38.45,-0.377927
38.5,-0.5305982
38.55,-0.7162042
38.6,-0.7786432
38.65,-0.7165334
38.7,-0.5417243
38.75,-0.478472
38.8,-0.5201245
38.85,-0.5938946
38.9,-0.7975064
38.95,-0.9761651
39,-1.057879
39.05,-0.871807
39.1,-0.6468827
39.15,-0.6360286
39.2,-0.7434546
39.25,-0.8689585
39.3,-0.9426938
39.35,-0.8256657
39.4,-0.6173863
39.45,-0.4034801
39.5,-0.4774894
39.55,-0.5975994
39.6,-0.7319713
39.65,-0.6934614
39.7,-0.6157172
39.75,-0.5497499
39.8,-0.5847882
39.85,-0.6805225
39.9,-0.7696745
39.95,-0.7994024
40,-0.7971515
40.05,-0.6952588
40.1,-0.672701
40.15,-0.7108556
40.2,-0.7959512
40.25,-0.8857355
40.3,-0.8715109
40.35,-0.813172
40.4,-0.7726667
40.45,-0.7311761
40.5,-0.7386869
40.55,-0.8305619
40.6,-0.8773633
40.65,-0.8407193
40.7,-0.7989752
40.75,-0.7962431
40.8,-0.7324064
40.85,-0.7330335
40.9,-0.7502881
40.95,-0.8045451
41,-0.7350319
41.05,-0.725858
41.1,-0.8409445
41.15,-0.967498
41.2,-1.028346
41.25,-1.091615
41.3,-1.052466
41.35,-1.010629
41.4,-0.9138818
41.45,-1.050507
41.5,-1.195926
41.55,-1.189768
41.6,-1.055457
41.65,-1.034904
41.7,-1.015517
41.75,-0.9570167
41.8,-0.9771196
41.85,-0.9579741
41.9,-0.7991738
41.95,-0.6071938
42,-0.4105329
42.05,-0.3591174
42.1,-0.4096673
42.15,-0.4164357
42.2,-0.293694
42.25,-0.1151952
42.3,0.1001783
42.35,0.3303252
42.4,0.5400354
42.45,0.9022065
42.5,1.856866
42.55,4.231153
42.6,8.867531
42.65,16.87264
42.7,28.99787
42.75,45.19776
42.8,64.15396
42.85,83.67638
42.9,99.92489
42.95,109.7284
43,110.1272
43.05,100.8973
43.1,84.20328
43.15,64.07903
43.2,44.35034
43.25,27.90796
43.3,15.96077
43.35,8.42891
43.4,4.178149
43.45,2.171205
43.5,1.34128
43.55,1.103128
43.6,0.9766986
43.65,0.8937695
43.7,0.8133985
43.75,0.73233
43.8,0.6404203
43.85,0.5495496
43.9,0.3937901
43.95,0.2368862
44,0.1538953
44.05,9.658889E-02
44.1,0.1317028
44.15,0.1373265
44.2,0.1383881
44.25,6.155733E-02
44.3,6.395069E-03
44.35,1.069626E-03
44.4,-9.215356E-02
44.45,-0.243725
44.5,-0.2922393
44.55,-0.3757344
44.6,-0.3213792
44.65,-0.371332
44.7,-0.3099317
44.75,-0.3434811
44.8,-0.3997693
44.85,-0.5196417
44.9,-0.5860781
44.95,-0.6599253
45,-0.6541672
45.05,-0.7031271
45.1,-0.7137699
45.15,-0.872337
45.2,-0.9899954
45.25,-0.9891356
45.3,-0.8202171
45.35,-0.6948134
45.4,-0.6526903
45.45,-0.6736609
45.5,-0.7449847
45.55,-0.8448844
45.6,-0.8832748
45.65,-0.8387599
45.7,-0.885875
45.75,-0.9566563
45.8,-0.9830419
45.85,-1.008436
45.9,-0.9963498
45.95,-0.9751327
46,-0.9672909
46.05,-0.9691105
46.1,-1.017158
46.15,-1.11997
46.2,-1.307065
46.25,-1.377773
46.3,-1.361774
46.35,-1.428305
46.4,-1.593742
46.45,-1.690718
46.5,-1.67112
46.55,-1.66271
46.6,-1.564113
46.65,-1.453526
46.7,-1.572796
46.75,-1.604802
46.8,-1.626762
46.85,-1.439737
46.9,-1.2404
46.95,-1.147295
47,-1.048888
47.05,-1.040104
47.1,-1.065804
47.15,-1.114067
47.2,-1.170621
47.25,-1.161178
47.3,-1.171822
47.35,-1.211433
47.4,-1.274276
47.45,-1.36884
47.5,-1.413894
47.55,-1.370257
47.6,-1.345973
47.65,-1.491756
47.7,-1.627164
47.75,-1.817537
47.8,-1.898302
47.85,-1.895065
47.9,-1.817054
47.95,-1.710178
48,-1.5888
48.05,-1.504512
48.1,-1.459678
48.15,-1.597627
48.2,-1.558567
48.25,-1.588516
48.3,-1.669181
48.35,-1.622248
48.4,-1.485197
48.45,-1.487687
48.5,-1.462732
48.55,-1.43451
48.6,-1.391577
48.65,-1.471689
48.7,-1.546078
48.75,-1.582701
48.8,-1.651066
48.85,-1.73536
48.9,-1.774386
48.95,-1.705384
49,-1.626589
49.05,-1.655033
49.1,-1.740562
49.15,-1.697983
49.2,-1.656119
49.25,-1.628016
49.3,-1.590352
49.35,-1.526326
49.4,-1.510976
49.45,-1.56215
49.5,-1.487261
49.55,-1.406605
49.6,-1.381572
49.65,-1.271992
49.7,-1.293556
49.75,-1.223356
49.8,-1.253765
49.85,-1.387336
49.9,-1.517329
49.95,-1.498122
50,-1.520864
50.05,-1.581023
50.1,-1.71648
50.15,-1.872725
50.2,-1.999958
50.25,-2.062527
50.3,-1.983256
50.35,-1.839421
50.4,-1.791407
50.45,-1.823522
50.5,-1.875603
50.55,-1.898156
50.6,-1.913992
50.65,-1.916203
50.7,-1.829528
50.75,-1.716428
50.8,-1.596133
50.85,-1.540288
50.9,-1.584348
50.95,-1.718711
51,-1.805852
51.05,-1.842846
51.1,-1.713209
51.15,-1.621534
51.2,-1.583461
51.25,-1.699945
51.3,-1.739585
51.35,-1.859204
51.4,-1.95132
51.45,-1.993943
51.5,-1.821959
51.55,-1.71386
51.6,-1.676993
51.65,-1.63874
51.7,-1.584774
51.75,-1.707629
51.8,-1.747476
51.85,-1.743955
51.9,-1.69128
51.95,-1.724271
52,-1.68121
52.05,-1.635855
52.1,-1.624
52.15,-1.51115
52.2,-1.385878
52.25,-1.387871
52.3,-1.424963
52.35,-1.505096
52.4,-1.542785
52.45,-1.544438
52.5,-1.437135
52.55,-1.339713
52.6,-1.234447
52.65,-1.052867
52.7,-0.7852507
52.75,-0.5108899
52.8,-2.931594E-02
52.85,0.4741378
52.9,0.8795555
52.95,1.214791
53,1.260398
53.05,1.138763
53.1,0.6296397
53.15,1.095796E-02
53.2,-0.5447421
53.25,-0.9365976
53.3,-1.206249
53.35,-1.257923
53.4,-1.369574
53.45,-1.459593
53.5,-1.619743
53.55,-1.629472
53.6,-1.594576
53.65,-1.498161
53.7,-1.399338
53.75,-1.438234
53.8,-1.586087
53.85,-1.678168
53.9,-1.692294
53.95,-1.718962
54,-1.744535
54.05,-1.759664
54.1,-1.882169
54.15,-1.965601
54.2,-1.800061
54.25,-1.623663
54.3,-1.418604
54.35,-1.428284
54.4,-1.407262
54.45,-1.467265
54.5,-1.45501
54.55,-1.382197
54.6,-1.248396
54.65,-1.194773
54.7,-1.210826
54.75,-1.226066
54.8,-1.157246
54.85,-1.22382
54.9,-1.241927
54.95,-1.321937
55,-1.306596
55.05,-1.445826
55.1,-1.484052
55.15,-1.471386
55.2,-1.399926
55.25,-1.246341
55.3,-1.107171
55.35,-1.066805
55.4,-1.025493
55.45,-1.007203
55.5,-0.9691302
55.55,-0.8486939
55.6,-0.6832749
55.65,-0.6084731
55.7,-0.6149062
55.75,-0.5969113
55.8,-0.5683302
55.85,-0.5254896
55.9,-0.5223933
55.95,-0.364977
56,-0.2524992
56.05,-7.495497E-02
56.1,0.1696206
56.15,0.4618961
56.2,0.6379554
56.25,0.599673
56.3,0.564056
56.35,0.6041902
56.4,0.4521936
56.45,0.4436794
56.5,0.5447874
56.55,0.6929051
56.6,0.7888458
56.65,0.8767137
56.7,0.9678825
56.75,0.9785894
56.8,1.134645
56.85,1.461448
56.9,1.782661
56.95,2.097111
57,2.261379
57.05,2.284501
57.1,2.423748
57.15,2.65704
57.2,2.85809
57.25,3.038359
57.3,3.23189
57.35,3.494349
57.4,3.790825
57.45,4.129249
57.5,4.468243
57.55,4.564423
57.6,4.707117
57.65,4.768709
57.7,5.189855
57.75,5.611796
57.8,5.955768
57.85,6.210427
57.9,6.385098
57.95,6.45292
58,6.515107
58.05,6.734589
58.1,7.378181
58.15,7.790524
58.2,8.397461
58.25,8.855874
58.3,9.331624
58.35,9.738396
58.4,10.23441
58.45,10.72514
58.5,11.0524
58.55,11.32294
58.6,11.80962
58.65,12.47232
58.7,13.27234
58.75,13.89872
58.8,14.39539
58.85,14.71569
58.9,15.08851
58.95,15.59698
59,16.0965
59.05,16.75323
59.1,17.44544
59.15,18.03585
59.2,18.5409
59.25,19.17569
59.3,19.94505
59.35,20.6441
59.4,21.12418
59.45,21.90969
59.5,22.71851
59.55,23.55057
59.6,24.3117
59.65,25.32402
59.7,26.04437
59.75,26.67171
59.8,27.45878
59.85,28.48929
59.9,29.5244
59.95,30.487
60,31.59244
60.05,32.4547
60.1,33.28968
60.15,34.24701
60.2,35.23505
60.25,35.96182
60.3,36.71416
60.35,37.45438
60.4,38.35089
60.45,39.37866
60.5,40.33524
60.55,41.3106
60.6,42.21802
60.65,43.19044
60.7,44.22033
60.75,45.24144
60.8,46.3764
60.85,47.79193
60.9,49.65076
60.95,51.36704
61,53.10059
61.05,54.35367
61.1,55.11601
61.15,56.1633
61.2,57.66863
61.25,59.20601
61.3,59.96572
61.35,60.74088
61.4,61.73513
61.45,63.0226
61.5,63.77515
61.55,65.23878
61.6,66.57462
61.65,67.90771
61.7,69.57009
61.75,71.43401
61.8,73.36375
61.85,74.50636
61.9,75.50758
61.95,76.96353
62,78.48222
62.05,80.05527
62.1,81.29557
62.15,82.46277
62.2,83.68227
62.25,84.88692
62.3,86.00234
62.35,87.15945
62.4,88.7378
62.45,90.23997
62.5,91.71141
62.55,93.49346
62.6,95.30494
62.65,97.01443
62.7,98.06509
62.75,98.98687
62.8,100.0747
62.85,101.3299
62.9,102.8773
62.95,104.4379
63,106.2057
63.05,107.6876
63.1,109.1417
63.15,110.6167
63.2,112.2685
63.25,113.3276
63.3,114.0941
63.35,115.0165
63.4,115.9366
63.45,117.4707
63.5,118.847
63.55,120.3488
63.6,121.4825
63.65,122.1944
63.7,122.9663
63.75,123.8208
63.8,125.1804
63.85,126.8715
63.9,128.2039
63.95,129.3409
64,130.2834
64.05,131.242
64.1,132.7098
64.15,134.1387
64.2,134.9471
64.25,135.2327
64.3,135.7252
64.35,137.0426
64.4,137.9651
64.45,139.4892
64.5,141.1246
64.55,142.0732
64.6,142.1137
64.65,142.411
64.7,143.0173
64.75,143.7565
64.8,144.7032
64.85,145.5529
64.9,146.1546
64.95,146.4556
65,146.6826
65.05,147.0835
65.1,147.5487
65.15,148.1421
65.2,148.66
65.25,149.3012
65.3,150.4158
65.35,151.2416
65.4,151.2468
65.45,151.1603
65.5,151.2761
65.55,151.1455
65.6,151.4109
65.65,152.0216
65.7,152.5678
65.75,152.5985
65.8,152.7125
65.85,153.1075
65.9,153.0805
65.95,153.4745
66,154.4549
66.05,155.4855
66.1,156.311
66.15,156.1496
66.2,155.4954
66.25,155.0206
66.3,154.6256
66.35,154.5995
66.4,154.3592
66.45,154.582
66.5,154.8136
66.55,154.4591
66.6,154.6151
66.65,154.9365
66.7,154.536
66.75,153.9098
66.8,153.5438
66.85,153.5195
66.9,152.9318
66.95,151.7498
67,150.8588
67.05,150.1658
67.1,149.8918
67.15,150.0961
67.2,150.4072
67.25,150.2742
67.3,149.6747
67.35,149.1484
67.4,148.6166
67.45,147.6491
67.5,146.6778
67.55,146.035
67.6,145.7498
67.65,145.6821
67.7,145.6143
67.75,145.7457
67.8,145.1229
67.85,144.2967
67.9,143.6592
67.95,143.7803
68,143.9235
68.05,143.2298
68.1,142.6844
68.15,141.746
68.2,140.6131
68.25,139.6582
68.3,138.6601
68.35,137.9823
68.4,137.4295
68.45,136.8868
68.5,136.8897
68.55,136.7793
68.6,135.943
68.65,134.9998
68.7,133.9771
68.75,133.0606
68.8,132.0775
68.85,130.8796
68.9,130.179
68.95,129.5542
69,129.1009
69.05,128.7365
69.1,128.422
69.15,128.2199
69.2,126.4624
69.25,124.7896
69.3,123.5862
69.35,122.9782
69.4,122.4073
69.45,122.6076
69.5,122.4234
69.55,120.5231
69.6,118.2325
69.65,117.3174
69.7,117.1649
69.75,117.0863
69.8,116.7217
69.85,116.6369
69.9,115.5076
69.95,114.2086
70,113.2233
70.05,112.4723
70.1,112.0816
70.15,111.5657
70.2,110.8476
70.25,110.0477
70.3,109.0603
70.35,107.974
70.4,107.1234
70.45,106.4882
70.5,105.2348
70.55,103.7207
70.6,102.5754
70.65,101.3773
70.7,100.3699
70.75,99.8097
70.8,99.94346
70.85,99.35886
70.9,98.03316
70.95,96.98857
71,95.82005
71.05,94.68918
71.1,94.23042
71.15,93.82524
71.2,94.10106
71.25,93.17581
71.3,93.38577
71.35,93.21853
71.4,92.7962
71.45,91.72681
71.5,90.13796
71.55,88.54865
71.6,87.4155
71.65,86.80839
71.7,86.48548
71.75,85.46893
71.8,84.44608
71.85,83.54523
71.9,82.87154
71.95,82.06625
72,81.36134
72.05,80.69948
72.1,79.55943
72.15,78.66261
72.2,78.43649
72.25,78.33115
72.3,78.03082
72.35,77.55168
72.4,77.08486
72.45,76.53107
72.5,75.21857
72.55,74.14597
72.6,73.17768
72.65,72.9342
72.7,72.47376
72.75,72.18181
72.8,71.59743
72.85,70.94157
72.9,69.77832
72.95,69.63711
73,68.27637
73.05,67.67812
73.1,67.06425
73.15,66.84076
73.2,66.67204
73.25,66.6171
73.3,66.09616
73.35,64.68892
73.4,63.01799
73.45,62.01835
73.5,60.99156
73.55,60.51991
73.6,60.67571
73.65,60.79423
73.7,60.85831
73.75,60.5347
73.8,59.60949
73.85,58.48787
73.9,57.54576
73.95,56.76029
74,56.3139
74.05,56.22867
74.1,56.0584
74.15,55.21146
74.2,54.64788
74.25,54.57259
74.3,54.17637
74.35,53.41424
74.4,52.68455
74.45,51.5331
74.5,50.71146
74.55,50.26335
74.6,50.56975
74.65,50.14015
74.7,49.51088
74.75,48.40585
74.8,47.48376
74.85,46.87139
74.9,46.86007
74.95,46.97058
75,46.78022
75.05,46.42947
75.1,46.17136
75.15,45.86135
75.2,46.0968
75.25,46.31262
75.3,46.00009
75.35,44.98955
75.4,43.80785
75.45,42.58999
75.5,41.62244
75.55,41.24729
75.6,41.0012
75.65,40.43224
75.7,40.06751
75.75,40.00196
75.8,39.77594
75.85,39.6927
75.9,39.83346
75.95,39.63565
76,38.89331
76.05,37.98118
76.1,37.17249
76.15,36.25652
76.2,35.72163
76.25,35.87374
76.3,36.09163
76.35,35.78082
76.4,34.565
76.45,33.40546
76.5,33.07899
76.55,32.97863
76.6,32.80366
76.65,32.82824
76.7,32.40922
76.75,31.75499
76.8,31.03027
76.85,31.01884
76.9,30.98042
76.95,30.64394
77,30.28067
77.05,30.00069
77.1,29.88773
77.15,30.05548
77.2,30.33124
77.25,30.26758
77.3,29.85017
77.35,29.15104
77.4,28.29844
77.45,27.5344
77.5,27.10511
77.55,26.77609
77.6,26.4165
77.65,26.16657
77.7,25.96265
77.75,25.7267
77.8,25.70847
77.85,25.46959
77.9,25.41549
77.95,24.77175
78,24.47183
78.05,24.22212
78.1,24.01964
78.15,23.7923
78.2,23.54258
78.25,23.35872
78.3,23.488
78.35,23.52486
78.4,23.51209
78.45,23.09741
78.5,22.61496
78.55,21.97189
78.6,21.39309
78.65,20.98256
78.7,20.53435
78.75,20.10358
78.8,20.05992
78.85,20.32308
78.9,20.48433
78.95,20.33958
79,19.73297
79.05,19.0866
79.1,18.61685
79.15,18.39023
79.2,18.25728
79.25,18.38245
79.3,18.32674
79.35,18.07086
79.4,17.74103
79.45,18.02192
79.5,17.70164
79.55,17.56493
79.6,17.49044
79.65,17.58582
79.7,17.19131
79.75,17.10346
79.8,16.85132
79.85,16.88526
79.9,16.77404
79.95,16.74618
80,16.58172
80.05,16.53049
80.1,16.22518
80.15,15.96907
80.2,15.5552
80.25,15.27082
80.3,14.95691
80.35,14.72491
80.4,14.77773
80.45,14.97165
80.5,15.06462
80.55,14.86747
80.6,14.27197
80.65,13.74565
80.7,13.43517
80.75,13.23647
80.8,13.4507
80.85,13.83008
80.9,14.09721
80.95,13.99317
81,14.09298
81.05,14.22309
81.1,14.0274
81.15,13.61721
81.2,13.59921
81.25,13.55637
81.3,13.49803
81.35,13.23409
81.4,13.41293
81.45,13.12696
81.5,12.93376
81.55,12.82316
81.6,12.84876
81.65,12.66384
81.7,12.36825
81.75,12.03884
81.8,12.05293
81.85,12.11852
81.9,12.45896
81.95,12.8194
82,12.97304
82.05,12.86528
82.1,12.62544
82.15,12.46854
82.2,12.48408
82.25,12.52135
82.3,12.48881
82.35,12.42342
82.4,12.42814
82.45,12.33645
82.5,12.15313
82.55,12.18084
82.6,12.37371
82.65,12.56408
82.7,12.42738
82.75,12.34463
82.8,12.40689
82.85,12.16415
82.9,12.08173
82.95,12.3459
83,12.19286
83.05,11.89571
83.1,11.50941
83.15,11.47622
83.2,11.57955
83.25,11.88047
83.3,12.28006
83.35,12.32461
83.4,12.26078
83.45,12.08547
83.5,11.97735
83.55,11.99345
83.6,12.0618
83.65,12.08998
83.7,11.95268
83.75,11.99517
83.8,12.22379
83.85,12.38182
83.9,12.51308
83.95,12.52807
84,12.45826
84.05,12.20848
84.1,12.16425
84.15,12.22638
84.2,12.06653
84.25,12.0407
84.3,12.24929
84.35,12.36127
84.4,12.66155
84.45,12.87962
84.5,13.05596
84.55,12.68117
84.6,12.50935
84.65,12.40652
84.7,12.30344
84.75,12.66126
84.8,13.02854
84.85,13.15303
84.9,13.37405
84.95,13.46875
85,13.44519
85.05,13.32177
85.1,13.47205
85.15,13.64305
85.2,13.48786
85.25,13.27993
85.3,13.17513
85.35,13.09552
85.4,13.24626
85.45,13.57379
85.5,13.83595
85.55,13.9711
85.6,14.15073
85.65,14.46682
85.7,14.62618
85.75,14.63947
85.8,14.50463
85.85,14.46616
85.9,14.29043
85.95,14.36153
86,14.62143
86.05,14.85978
86.1,14.89402
86.15,15.00329
86.2,15.0415
86.25,15.27683
86.3,15.22394
86.35,15.53224
86.4,15.61254
86.45,15.43402
86.5,15.30731
86.55,15.31857
86.6,15.4539
86.65,15.72415
86.7,15.89772
86.75,16.01358
86.8,15.94387
86.85,15.99609
86.9,16.01662
86.95,16.12708
87,16.19553
87.05,16.33876
87.1,16.35452
87.15,16.35983
87.2,16.56577
87.25,16.7288
87.3,16.93454
87.35,17.10846
87.4,17.15629
87.45,17.06477
87.5,17.06072
87.55,17.21085
87.6,17.30823
87.65,17.38972
87.7,17.61342
87.75,17.61789
87.8,17.77619
87.85,18.00487
87.9,18.19774
87.95,18.09545
88,18.16125
88.05,18.35363
88.1,17.94427
88.15,17.91692
88.2,18.15232
88.25,18.45876
88.3,18.61421
88.35,18.78027
88.4,18.89574
88.45,18.78689
88.5,18.803
88.55,19.12759
88.6,19.24197
88.65,19.42746
88.7,19.60782
88.75,19.75049
88.8,19.93484
88.85,20.05121
88.9,19.96054
88.95,19.81491
89,19.87133
89.05,19.90128
89.1,19.70359
89.15,19.62212
89.2,19.69795
89.25,19.6219
89.3,19.58943
89.35,19.99889
89.4,20.39056
89.45,20.87326
89.5,21.2568
89.55,21.52426
89.6,21.57049
89.65,21.19704
89.7,20.97173
89.75,21.14731
89.8,21.27541
89.85,21.30926
89.9,21.22082
89.95,21.25389
90,21.15635
90.05,21.28109
90.1,21.54688
90.15,21.64014
90.2,21.45768
90.25,21.22063
90.3,20.97657
90.35,20.92986
90.4,21.00831
90.45,21.18678
90.5,21.32874
90.55,21.57534
90.6,21.86073
90.65,21.95727
90.7,21.85964
90.75,21.64425
90.8,21.46482
90.85,21.13725
90.9,21.15472
90.95,21.52196
91,21.70206
91.05,21.73492
91.1,21.76481
91.15,21.71737
91.2,21.82203
91.25,21.97492
91.3,22.16156
91.35,21.98136
91.4,21.61114
91.45,21.43727
91.5,21.44537
91.55,21.5367
91.6,21.9416
91.65,22.02622
91.7,22.09022
91.75,22.04593
91.8,21.8479
91.85,21.68421
91.9,21.64741
91.95,21.72105
92,21.89714
92.05,22.01126
92.1,22.13065
92.15,21.83649
92.2,21.4245
92.25,21.26613
92.3,21.28685
92.35,21.39162
92.4,21.30236
92.45,21.22239
92.5,20.88838
92.55,20.60271
92.6,20.65378
92.65,21.01177
92.7,21.17182
92.75,21.13047
92.8,20.66409
92.85,20.42777
92.9,20.05655
92.95,19.99699
93,20.30409
93.05,20.85881
93.1,21.1147
93.15,20.84891
93.2,20.13159
93.25,19.71997
93.3,19.52518
93.35,19.95531
93.4,20.50525
93.45,20.93231
93.5,20.8427
93.55,20.29524
93.6,19.90923
93.65,19.86155
93.7,19.87322
93.75,19.75243
93.8,19.40347
93.85,18.99847
93.9,18.69235
93.95,18.64137
94,18.92931
94.05,19.2544
94.1,19.30157
94.15,18.87146
94.2,18.30267
94.25,17.85087
94.3,17.8984
94.35,18.16373
94.4,18.5523
94.45,18.65907
94.5,18.52935
94.55,18.1094
94.6,17.8721
94.65,17.66083
94.7,17.89298
94.75,17.87211
94.8,17.74501
94.85,17.79354
94.9,17.67931
94.95,17.29872
95,17.30881
95.05,17.24291
95.1,16.93491
95.15,16.42099
95.2,16.15768
95.25,16.02526
95.3,15.87086
95.35,16.00619
95.4,16.17365
95.45,16.04814
95.5,15.81948
95.55,15.66997
95.6,15.52453
95.65,15.30558
95.7,15.13705
95.75,14.93386
95.8,14.83656
95.85,14.87508
95.9,14.91834
95.95,15.12445
96,15.137
96.05,14.88928
96.1,14.41802
96.15,14.08575
96.2,14.12953
96.25,14.0283
96.3,14.24384
96.35,14.5913
96.4,14.46035
96.45,14.12147
96.5,13.69349
96.55,13.34593
96.6,12.94624
96.65,12.55739
96.7,12.65335
96.75,12.62917
96.8,12.51389
96.85,12.35243
96.9,12.19651
96.95,12.04636
97,11.83632
97.05,11.84163
97.1,11.91816
97.15,11.88342
97.2,11.70699
97.25,11.48687
97.3,11.4589
97.35,11.4486
97.4,11.47046
97.45,11.45559
97.5,11.22917
97.55,10.90602
97.6,10.40077
97.65,9.983341
97.7,9.825189
97.75,9.655783
97.8,9.748487
97.85,9.810026
97.9,9.644524
97.95,9.356138
98,8.983106
98.05,8.679636
98.1,8.79008
98.15,8.669753
98.2,8.984256
98.25,9.192326
98.3,9.307457
98.35,9.246275
98.4,8.897083
98.45,8.331072
98.5,7.93337
98.55,7.821336
98.6,8.069739
98.65,8.233139
98.7,8.318369
98.75,8.208701
98.8,7.965077
98.85,7.773067
98.9,7.606183
98.95,7.42012
99,7.232782
99.05,7.127212
99.1,6.970615
99.15,6.807266
99.2,6.76877
99.25,6.800321
99.3,6.699355
99.35,6.499958
99.4,6.370763
99.45,6.49216
99.5,6.511966
99.55,6.422421
99.6,6.352321
99.65,6.34189
99.7,6.129718
99.75,6.138696
99.8,6.169714
99.85,6.21405
99.9,6.139613
99.95,5.873318
100,5.702263
100.05,5.538788
100.1,5.394129
100.15,5.223954
100.2,4.883474
100.25,4.638947
100.3,4.537421
100.35,4.561314
100.4,4.671339
100.45,4.789405
100.5,4.849102
100.55,4.803593
100.6,4.648298
100.65,4.402588
100.7,4.166419
100.75,4.046404
100.8,4.108455
100.85,4.125471
100.9,4.10857
100.95,3.8867
101,3.638916
101.05,3.394846
101.1,3.454079
101.15,3.648742
101.2,3.841635
101.25,3.873465
101.3,3.935666
101.35,3.960056
101.4,3.83755
101.45,3.37969
101.5,2.902
101.55,2.521551
101.6,2.365785
101.65,2.557228
101.7,2.864135
101.75,2.979647
101.8,2.946359
101.85,2.747715
101.9,2.490271
101.95,2.238345
102,2.155965
102.05,2.17626
102.1,2.21362
102.15,2.271762
102.2,2.244017
102.25,2.05947
102.3,1.900944
102.35,1.871685
102.4,1.853268
102.45,1.800887
102.5,1.691418
102.55,1.760738
102.6,1.896302
102.65,2.107893
102.7,2.116561
102.75,1.986512
102.8,1.782911
102.85,1.606012
102.9,1.306883
102.95,1.227636
103,1.087248
103.05,0.9747127
103.1,0.845433
103.15,0.9269253
103.2,0.9903668
103.25,0.8779486
103.3,0.8567526
103.35,1.18925
103.4,1.375756
103.45,1.424477
103.5,1.361304
103.55,1.236284
103.6,1.138189
103.65,1.083169
103.7,1.074492
103.75,0.9170356
103.8,0.7152706
103.85,0.6227785
103.9,0.5895513
103.95,0.5622748
104,0.5180436
104.05,0.4468786
104.1,0.4434815
104.15,0.4675205
104.2,0.5007941
104.25,0.4136732
104.3,0.3909045
104.35,0.3307754
104.4,0.1358687
104.45,2.878974E-02
104.5,0.1663072
104.55,0.1407427
104.6,0.2069694
104.65,0.2723849
104.7,0.5561233
104.75,0.6665109
104.8,0.6695014
104.85,0.6229674
104.9,0.5067505
104.95,0.2385229
105,2.482131E-02
105.05,-9.416296E-02
105.1,0.1191416
105.15,0.1299852
105.2,-2.419688E-02
105.25,-0.1222036
105.3,-0.2147257
105.35,-0.384251
105.4,-0.4432693
105.45,-0.3513968
105.5,-0.3006377
105.55,-0.4365706
105.6,-0.4721568
105.65,-0.3768642
105.7,-0.2833588
105.75,-4.483055E-02
105.8,0.1436084
105.85,0.3063414
105.9,0.3492549
105.95,0.3381448
106,0.3141881
106.05,0.1059002
106.1,-1.414519E-02
106.15,-5.432609E-02
106.2,-0.2329913
106.25,-0.2675809
106.3,-0.139555
106.35,0.1203192
106.4,0.2340323
106.45,0.35156
106.5,0.2176826
106.55,-0.1247772
106.6,-0.4796739
106.65,-0.6223229
106.7,-0.6027879
106.75,-0.6413773
106.8,-0.6129889
106.85,-0.7300613
106.9,-0.9764516
106.95,-0.7772548
107,-0.2786371
107.05,0.1295351
107.1,0.1635806
107.15,-0.1627058
107.2,-0.6398612
107.25,-0.9847497
107.3,-0.8013947
107.35,-0.4223957
107.4,-0.2049459
107.45,-1.538722E-02
107.5,-0.1211855
107.55,-0.3780726
107.6,-0.4737287
107.65,-0.4539386
107.7,-0.4738715
107.75,-0.7939593
107.8,-0.6111315
107.85,-0.2555819
107.9,-0.1482079
107.95,7.871388E-03
108,1.906861E-02
108.05,-0.2139023
108.1,-0.4750478
108.15,-0.6258809
108.2,-0.5606961
108.25,-0.4022618
108.3,-0.5232022
108.35,-0.8209003
108.4,-0.9387637
108.45,-0.7436802
108.5,-0.4777349
108.55,-0.3000682
108.6,-0.2921695
108.65,-0.4627667
108.7,-0.7876813
108.75,-0.9647346
108.8,-0.9856095
108.85,-0.9701634
108.9,-1.010904
108.95,-0.9063148
109,-0.5917222
109.05,-0.3800485
109.1,-0.3441715
109.15,-0.4221051
109.2,-0.4618728
109.25,-0.6242469
109.3,-0.8442659
109.35,-0.8890811
109.4,-0.9721616
109.45,-0.8699332
109.5,-0.5521755
109.55,-4.664235E-02
109.6,0.2567129
109.65,0.1139958
109.7,-6.808461E-04
109.75,2.519535E-03
109.8,3.151318E-02
109.85,0.2190499
109.9,0.2705913
109.95,0.3599749
110,0.2732908
110.05,-0.1196655
110.1,-0.6463943
110.15,-1.189525
110.2,-1.714001
110.25,-1.923756
110.3,-1.698725
110.35,-1.258596
110.4,-1.075351
110.45,-1.190718
110.5,-1.236157
110.55,-0.9166077
110.6,-0.4695268
110.65,-0.2710535
110.7,-0.389883
110.75,-0.6223835
110.8,-0.9551803
110.85,-0.9755883
110.9,-0.4859558
110.95,-2.518168E-02
111,0.0702246
111.05,-0.2665561
111.1,-0.4701833
111.15,-0.5561191
111.2,-0.2982377
111.25,0.2408156
111.3,0.3761256
111.35,-1.607489E-02
111.4,-0.3761557
111.45,-0.6390233
111.5,-0.6279816
111.55,-0.4190095
111.6,-0.5168964
111.65,-1.01989
111.7,-1.468022
111.75,-1.645661
111.8,-1.360922
111.85,-0.7085037
111.9,-8.353774E-03
111.95,-3.381247E-02
112,-0.5044989
112.05,0.6287541
112.1,4.22891
112.15,8.225893
112.2,12.36163
112.25,16.98529
112.3,21.11354
112.35,25.57707
112.4,32.84655
112.45,43.08115
112.5,56.32452
112.55,69.01849
112.6,83.1884
112.65,97.08176
112.7,110.7841
112.75,125.4148
112.8,136.4162
112.85,143.4546
112.9,149.3589
112.95,150.5016
113,150.9826
113.05,147.9058
113.1,143.0199
113.15,138.3654
113.2,132.2949
113.25,126.93
113.3,120.1672
113.35,112.0095
113.4,105.3576
113.45,99.82442
113.5,92.5638
113.55,83.82415
113.6,75.03093
113.65,65.951
113.7,56.45856
113.75,48.31387
113.8,42.32258
113.85,37.0478
113.9,31.88486
113.95,27.96277
114,23.63931
114.05,18.23748
114.1,14.10233
114.15,12.61239
114.2,12.93396
114.25,13.22204
114.3,12.30855
114.35,10.66252
114.4,8.289985
114.45,6.837973
114.5,6.515856
114.55,6.332776
114.6,6.163609
114.65,5.821124
114.7,4.914752
114.75,4.822032
114.8,4.740503
114.85,5.180707
114.9,4.500834
114.95,3.539986
115,2.35344
115.05,1.213316
115.1,1.269664
115.15,1.809489
115.2,2.089801
115.25,1.9744
115.3,2.191196
115.35,2.512758
115.4,2.22048
115.45,1.547482
115.5,0.7884936
115.55,3.213286E-02
115.6,6.494654E-02
115.65,1.323032
115.7,2.716087
115.75,3.383078
115.8,3.295288
115.85,2.427987
115.9,1.151675
115.95,0.2861793
116,0.1868079
116.05,-3.523793E-02
116.1,-0.6193628
116.15,-0.7041202
116.2,-0.7241436
116.25,-1.189002
116.3,-1.251159
116.35,-1.353209
116.4,-1.211887
116.45,-1.093796
116.5,-0.8910037
116.55,-0.2709721
116.6,-0.4485827
116.65,-0.987361
116.7,-1.427478
116.75,-1.526692
116.8,-1.273005
116.85,-1.414473
116.9,-1.841163
116.95,-2.202207
117,-2.612445
117.05,-2.873986
117.1,-2.973277
117.15,-2.879782
117.2,-2.883059
117.25,-2.991018
117.3,-2.971959
117.35,-3.024817
117.4,-3.214637
117.45,-3.368992
117.5,-3.345698
117.55,-3.269445
117.6,-3.07329
117.65,-2.803842
117.7,-2.49127
117.75,-2.400429
117.8,-2.274864
117.85,-2.417984
117.9,-2.809746
117.95,-3.266021
118,-3.646336
118.05,-3.858238
118.1,-3.528958
118.15,-3.126826
118.2,-2.688163
118.25,-2.557837
118.3,-2.531868
118.35,-2.792662
118.4,-3.157038
118.45,-3.348578
118.5,-3.263855
118.55,-3.233931
118.6,-3.059204
118.65,-2.883379
118.7,-2.895602
118.75,-3.112049
118.8,-3.334348
118.85,-3.395334
118.9,-3.321682
118.95,-3.197343
119,-3.010099
119.05,-3.039991
119.1,-3.364091
119.15,-3.740908
119.2,-4.004524
119.25,-4.039165
119.3,-4.037245
119.35,-3.989357
119.4,-4.024904
119.45,-3.966305
119.5,-3.808558
119.55,-3.639349
119.6,-3.579613
119.65,-3.636058
119.7,-3.877294
119.75,-4.214334
119.8,-4.356045
119.85,-3.982667
119.9,-3.707767
119.95,-3.521997
120,-3.534324
120.05,-3.66856
120.1,-3.8241
120.15,-3.884474
120.2,-3.859356
120.25,-3.821438
120.3,-3.965291
120.35,-4.107373
120.4,-4.172542
120.45,-4.157407
120.5,-4.194915
120.55,-4.30968
120.6,-4.252266
120.65,-4.070679
120.7,-3.930025
120.75,-3.847063
120.8,-3.798187
120.85,-3.903172
120.9,-4.19342
120.95,-4.126074
121,-3.774357
121.05,-3.707632
121.1,-3.766258
121.15,-3.887183
121.2,-4.192256
121.25,-4.620524
121.3,-4.778591
121.35,-4.441254
121.4,-4.111701
121.45,-4.057102
121.5,-4.038906
121.55,-4.146681
121.6,-4.274328
121.65,-4.421427
121.7,-4.569043
121.75,-4.614627
121.8,-4.578457
121.85,-4.57982
121.9,-4.500528
121.95,-4.445658
122,-4.431561
122.05,-4.481502
122.1,-4.56232
122.15,-4.597578
122.2,-4.648242
122.25,-4.602607
122.3,-4.351381
122.35,-4.051331
122.4,-3.920674
122.45,-3.979862
122.5,-4.162235
122.55,-4.319414
122.6,-4.507199
122.65,-4.64186
122.7,-4.716055
122.75,-4.725038
122.8,-4.736968
122.85,-4.673782
122.9,-4.772079
122.95,-4.719831
123,-4.947148
123.05,-4.871421
123.1,-4.712454
123.15,-4.595532
123.2,-4.475492
123.25,-4.544682
123.3,-4.644451
123.35,-4.721659
123.4,-4.80054
123.45,-4.672888
123.5,-4.42596
123.55,-4.285227
123.6,-4.303575
123.65,-4.507755
123.7,-4.693317
123.75,-4.781782
123.8,-4.764668
123.85,-4.726183
123.9,-4.797272
123.95,-4.900986
124,-4.990189
124.05,-5.037042
124.1,-4.985985
124.15,-4.953904
124.2,-5.092769
124.25,-5.345379
124.3,-5.40079
124.35,-5.314294
124.4,-4.873636
124.45,-4.525092
124.5,-4.228434
124.55,-4.144352
124.6,-4.417721
124.65,-4.628773
124.7,-4.720385
124.75,-4.831124
124.8,-4.661093
124.85,-4.649628
124.9,-4.553438
124.95,-4.801123
125,-5.043835
125.05,-5.059792
125.1,-4.960182
125.15,-4.795766
125.2,-4.723899
125.25,-4.763881
125.3,-4.933828
125.35,-5.238007
125.4,-5.433768
125.45,-5.447526
125.5,-5.28872
125.55,-5.161991
125.6,-5.109436
125.65,-5.092885
125.7,-5.151464
125.75,-5.232538
125.8,-5.230514
125.85,-5.130744
125.9,-4.987564
125.95,-4.897967
126,-4.93975
126.05,-4.725311
126.1,-4.594109
126.15,-4.732943
126.2,-4.858071
126.25,-5.025357
126.3,-4.935754
126.35,-4.695784
126.4,-4.428768
126.45,-4.324316
126.5,-4.738809
126.55,-5.133027
126.6,-5.386997
126.65,-5.515441
126.7,-5.570612
126.75,-5.613139
126.8,-5.647826
126.85,-5.629476
126.9,-5.485886
126.95,-5.327256
127,-5.271121
127.05,-5.322552
127.1,-5.430083
127.15,-5.435457
127.2,-5.396957
127.25,-5.435502
127.3,-5.533906
127.35,-5.590663
127.4,-5.516099
127.45,-5.419165
127.5,-5.379349
127.55,-5.361371
127.6,-5.343612
127.65,-5.344839
127.7,-5.41105
127.75,-5.476587
127.8,-5.52803
127.85,-5.639757
127.9,-5.709052
127.95,-5.679137
128,-5.548654
128.05,-5.410386
128.1,-5.315005
128.15,-5.315472
128.2,-5.394573
128.25,-5.617726
128.3,-5.643325
128.35,-5.490351
128.4,-5.410357
128.45,-5.310561
128.5,-5.37592
128.55,-5.577478
128.6,-5.721327
128.65,-5.743229
128.7,-5.695286
128.75,-5.719337
128.8,-5.721081
128.85,-5.738081
128.9,-5.9407
128.95,-6.054758
129,-5.973812
129.05,-5.972711
129.1,-6.039315
129.15,-5.890172
129.2,-5.791824
129.25,-5.825364
129.3,-5.909748
129.35,-5.871107
129.4,-5.938373
129.45,-5.986499
129.5,-5.78864
129.55,-5.48983
129.6,-5.482696
129.65,-5.570252
129.7,-5.780247
129.75,-5.978187
129.8,-6.134789
129.85,-6.12069
129.9,-5.825593
129.95,-5.629327
130,-5.739435
130.05,-6.016528
130.1,-6.241872
130.15,-6.323536
130.2,-6.264954
130.25,-6.093279
130.3,-5.935774
130.35,-5.927877
130.4,-6.098056
130.45,-6.300715
130.5,-6.361221
130.55,-6.335764
130.6,-6.305498
130.65,-6.297628
130.7,-6.226418
130.75,-6.228192
130.8,-6.214165
130.85,-6.120096
130.9,-5.866559
130.95,-5.74772
131,-5.715144
131.05,-5.737588
131.1,-5.771273
131.15,-5.958157
131.2,-6.014016
131.25,-6.051118
131.3,-5.962998
131.35,-6.066783
131.4,-6.109681
131.45,-6.201597
131.5,-6.149439
131.55,-6.139929
131.6,-6.141103
131.65,-6.199495
131.7,-6.233516
131.75,-6.258974
131.8,-6.20667
131.85,-6.182312
131.9,-6.072628
131.95,-6.13649
132,-6.228871
132.05,-6.215965
132.1,-6.141246
132.15,-6.071086
132.2,-6.05851
132.25,-5.971102
132.3,-5.887977
132.35,-5.926355
132.4,-5.991797
132.45,-6.136569
132.5,-6.337324
132.55,-6.517776
132.6,-6.577638
132.65,-6.513062
132.7,-6.528913
132.75,-6.51596
132.8,-6.554827
132.85,-6.580481
132.9,-6.470485
132.95,-6.372279
133,-6.281479
133.05,-6.330894
133.1,-6.406139
133.15,-6.492073
133.2,-6.601753
133.25,-6.661183
133.3,-6.528249
133.35,-6.539836
133.4,-6.545449
133.45,-6.540045
133.5,-6.493686
133.55,-6.453978
133.6,-6.383396
133.65,-6.295619
133.7,-6.257851
133.75,-6.362459
133.8,-6.402213
133.85,-6.409359
133.9,-6.543315
133.95,-6.592304
134,-6.486329
134.05,-6.412985
134.1,-6.468648
134.15,-6.429346
134.2,-6.307821
134.25,-6.340675
134.3,-6.391312
134.35,-6.419165
134.4,-6.54713
134.45,-6.754474
134.5,-6.865971
134.55,-6.781994
134.6,-6.711604
134.65,-6.644691
134.7,-6.681154
134.75,-6.71259
134.8,-6.688216
134.85,-6.698912
134.9,-6.675301
134.95,-6.59399
135,-6.618361
135.05,-6.813779
135.1,-6.835736
135.15,-6.767376
135.2,-6.676939
135.25,-6.71029
135.3,-6.795516
135.35,-6.831032
135.4,-6.776295
135.45,-6.753542
135.5,-6.768637
135.55,-6.754905
135.6,-6.688304
135.65,-6.601797
135.7,-6.469802
135.75,-6.281538
135.8,-6.336062
135.85,-6.677795
135.9,-6.677795
135.95,-6.677795
136,-6.677795
136.05,-6.677795
136.1,-6.677795
136.15,-6.677795
136.2,-6.677795
136.25,-6.677795
136.3,-6.677795
136.35,-6.677795
136.4,-6.677795
136.45,-6.677795
136.5,-6.677795
136.55,-6.677795
136.6,-6.677795
136.65,-6.677795
136.7,-6.677795
136.75,-6.677795
136.8,-6.677795
136.85,-6.677795
136.9,-6.677795
136.95,-6.677795
137,-6.677795
137.05,-6.677795
137.1,-6.677795
137.15,-6.677795
137.2,-6.677795
137.25,-6.677795
137.3,-6.677795
137.35,-6.677795
137.4,-6.677795
137.45,-6.677795
137.5,-6.677795
137.55,-6.677795
137.6,-6.677795
137.65,-6.677795
137.7,-6.677795
137.75,-6.677795
137.8,-6.677795
137.85,-6.677795
137.9,-6.677795
137.95,-6.677795
138,-6.677795
 
Alignment,On
