Data File Name,2100 expert_High Sensitivity DNA Assay_DE34904066_2015-05-22_14-28-17.xad
Data File Path,C:\Program Files (x86)\Agilent\2100 bioanalyzer\2100 expert\Data\2015-05-22
Date Created,"Friday, May 22, 2015 6:28:16 PM"
Date Last Modified,"Wednesday, May 27, 2015 3:00:00 PM"
Version Created,B.02.08.SI648
Version Last Modified,B.02.08.SI648
 
Assay Name,High Sensitivity DNA
Assay Path,C:\Program Files (x86)\Agilent\2100 bioanalyzer\2100 expert\assays\dsDNA
Assay Title,High Sensitivity DNA Assay
Assay Version,1.03
 
Number of Samples Run,11
 
Sample Name,8D #38 post amp 1:20
Number of Events,2121
 
Time,Value
32,0.1785278
32.05,0.1785278
32.1,0.1785278
32.15,0.1785278
32.2,0.1785278
32.25,0.1785278
32.3,0.1785278
32.35,0.1785278
32.4,0.1785278
32.45,0.1785278
32.5,0.1785278
32.55,0.1785278
32.6,0.1785278
32.65,0.1785278
32.7,0.1785278
32.75,0.1785278
32.8,0.1785278
32.85,0.1785278
32.9,0.1785278
32.95,0.1785278
33,0.1785278
33.05,0.1785278
33.1,0.1785278
33.15,0.1785278
33.2,0.1785278
33.25,0.1785278
33.3,0.1785278
33.35,0.1785278
33.4,0.1785278
33.45,0.1785278
33.5,0.2689431
33.55,0.1963905
33.6,-6.823115E-03
33.65,-1.681827E-02
33.7,-5.317638E-02
33.75,-0.1719953
33.8,-0.3179404
33.85,-0.1751095
33.9,-9.955367E-02
33.95,-0.1382493
34,-9.219995E-02
34.05,0.104919
34.1,0.2249417
34.15,0.3483353
34.2,0.3063256
34.25,0.3837765
34.3,0.2003572
34.35,-6.684015E-02
34.4,-0.3233012
34.45,-0.4867918
34.5,-0.6457262
34.55,-0.6504663
34.6,-0.5586243
34.65,-0.5154847
34.7,-0.6445236
34.75,-0.4822736
34.8,-0.428481
34.85,-0.2172671
34.9,-8.168149E-02
34.95,0.0478514
35,-2.533831E-02
35.05,-0.2806017
35.1,-0.4818214
35.15,-0.5489018
35.2,-0.6805712
35.25,-0.5219872
35.3,-0.4298483
35.35,-0.3556512
35.4,-0.3785091
35.45,-0.4732824
35.5,-0.5880111
35.55,-0.6972043
35.6,-0.7232831
35.65,-0.6127677
35.7,-0.6012731
35.75,-0.6503384
35.8,-0.784585
35.85,-0.9532815
35.9,-1.042561
35.95,-1.008067
36,-0.8885509
36.05,-0.6953647
36.1,-0.553985
36.15,-0.4631578
36.2,-0.4775804
36.25,-0.5336652
36.3,-0.6379945
36.35,-0.6924599
36.4,-0.7534875
36.45,-0.6858202
36.5,-0.5441691
36.55,-0.3682442
36.6,-0.2346738
36.65,-0.2429339
36.7,-0.2977764
36.75,-0.3897365
36.8,-0.5243444
36.85,-0.5870683
36.9,-0.6391249
36.95,-0.740976
37,-0.9277379
37.05,-0.9511484
37.1,-0.7026263
37.15,-0.4256773
37.2,-0.2221533
37.25,-0.165824
37.3,-0.3330683
37.35,-0.5340254
37.4,-0.6121606
37.45,-0.6028095
37.5,-0.6241299
37.55,-0.6670379
37.6,-0.7208247
37.65,-0.7857077
37.7,-0.7725447
37.75,-0.6314544
37.8,-0.4638686
37.85,-0.3073236
37.9,-0.245562
37.95,-0.2900811
38,-0.2729769
38.05,-0.1909817
38.1,-0.213188
38.15,-0.2791293
38.2,-0.3312165
38.25,-0.4477955
38.3,-0.6183982
38.35,-0.7453703
38.4,-0.7711645
38.45,-0.814465
38.5,-0.878461
38.55,-0.721732
38.6,-0.2598339
38.65,8.201147E-02
38.7,0.1883929
38.75,0.1290971
38.8,-7.742222E-02
38.85,-0.3800015
38.9,-0.6348963
38.95,-0.7701916
39,-0.8088945
39.05,-0.9213523
39.1,-1.009187
39.15,-0.9326168
39.2,-0.7974979
39.25,-0.6876191
39.3,-0.5724012
39.35,-0.5143319
39.4,-0.5845194
39.45,-0.6702213
39.5,-0.8162645
39.55,-0.9822631
39.6,-1.13165
39.65,-1.271306
39.7,-1.354861
39.75,-1.473892
39.8,-1.55484
39.85,-1.419024
39.9,-1.133884
39.95,-0.9158412
40,-0.7712201
40.05,-0.7652838
40.1,-0.8678159
40.15,-1.027551
40.2,-1.123143
40.25,-1.007943
40.3,-0.8035486
40.35,-0.7081338
40.4,-0.6491991
40.45,-0.5023592
40.5,-0.439813
40.55,-0.5518463
40.6,-0.7426015
40.65,-0.9483469
40.7,-1.028125
40.75,-0.8375766
40.8,-0.6505782
40.85,-0.520225
40.9,-0.3484766
40.95,-0.267951
41,-0.4199178
41.05,-0.7668205
41.1,-1.033727
41.15,-1.300846
41.2,-1.615144
41.25,-1.694813
41.3,-1.492774
41.35,-1.276847
41.4,-1.04272
41.45,-0.8908057
41.5,-0.8811235
41.55,-1.007272
41.6,-0.8883028
41.65,-0.7985979
41.7,-0.7662261
41.75,-0.6314468
41.8,-0.444942
41.85,-0.4050845
41.9,-0.5787103
41.95,-0.7588888
42,-0.7566656
42.05,-0.5800684
42.1,-0.2287757
42.15,0.2581806
42.2,0.4886422
42.25,0.5287402
42.3,0.4462821
42.35,0.4097331
42.4,0.4414979
42.45,0.6861947
42.5,1.271568
42.55,2.666322
42.6,5.561807
42.65,10.88069
42.7,19.81999
42.75,33.1181
42.8,50.62595
42.85,70.44714
42.9,90.3678
42.95,106.054
43,114.3362
43.05,113.253
43.1,103.3763
43.15,86.23403
43.2,65.63615
43.25,45.42597
43.3,28.70936
43.35,16.27138
43.4,8.436751
43.45,4.205228
43.5,2.067719
43.55,1.154803
43.6,1.198692
43.65,1.408936
43.7,1.490808
43.75,1.344252
43.8,1.182693
43.85,1.046066
43.9,0.8875081
43.95,0.9137368
44,0.8719532
44.05,0.7630585
44.1,0.6534595
44.15,0.480303
44.2,0.5122227
44.25,0.5087026
44.3,0.4366378
44.35,0.3019494
44.4,4.637227E-02
44.45,-0.1137575
44.5,-0.2009258
44.55,-0.3170695
44.6,-0.3002215
44.65,-0.3248757
44.7,-0.3913998
44.75,-0.5980182
44.8,-0.8143193
44.85,-1.001225
44.9,-1.09919
44.95,-1.0585
45,-0.7390848
45.05,-0.3133202
45.1,-6.014534E-03
45.15,0.0150819
45.2,-4.964401E-02
45.25,-0.2786525
45.3,-0.5702123
45.35,-0.9183047
45.4,-0.9317559
45.45,-0.8029327
45.5,-0.625786
45.55,-0.4196073
45.6,-7.967405E-02
45.65,0.1288823
45.7,0.1695259
45.75,-7.103312E-02
45.8,-0.3956975
45.85,-0.7309412
45.9,-0.8987997
45.95,-0.9046416
46,-0.8695776
46.05,-0.8256845
46.1,-0.9421816
46.15,-1.23611
46.2,-1.38823
46.25,-1.368544
46.3,-1.22922
46.35,-1.157132
46.4,-1.168466
46.45,-1.28165
46.5,-1.514954
46.55,-1.740256
46.6,-1.817356
46.65,-1.581361
46.7,-1.067267
46.75,-0.6165795
46.8,-0.434052
46.85,-0.5176332
46.9,-0.705285
46.95,-0.9143477
47,-1.015717
47.05,-0.8797396
47.1,-0.7316552
47.15,-0.751488
47.2,-0.9427894
47.25,-1.190742
47.3,-1.380322
47.35,-1.469475
47.4,-1.494937
47.45,-1.509465
47.5,-1.601422
47.55,-1.708616
47.6,-1.76158
47.65,-1.743175
47.7,-1.598675
47.75,-1.370406
47.8,-1.196161
47.85,-1.239143
47.9,-1.42497
47.95,-1.611687
48,-1.783659
48.05,-1.884155
48.1,-1.866854
48.15,-1.680046
48.2,-1.431947
48.25,-1.316016
48.3,-1.216359
48.35,-1.104957
48.4,-1.1487
48.45,-1.324834
48.5,-1.469127
48.55,-1.507652
48.6,-1.556302
48.65,-1.617482
48.7,-1.557907
48.75,-1.378113
48.8,-1.284287
48.85,-1.346277
48.9,-1.448398
48.95,-1.53915
49,-1.690524
49.05,-1.806364
49.1,-1.840878
49.15,-1.867914
49.2,-1.95265
49.25,-2.022553
49.3,-2.043448
49.35,-1.869168
49.4,-1.551639
49.45,-1.271325
49.5,-1.180142
49.55,-1.313101
49.6,-1.550931
49.65,-1.721111
49.7,-1.715992
49.75,-1.531698
49.8,-1.274915
49.85,-1.120629
49.9,-1.189687
49.95,-1.362676
50,-1.606263
50.05,-1.881689
50.1,-2.088589
50.15,-2.141589
50.2,-2.103137
50.25,-2.016772
50.3,-1.886517
50.35,-1.694567
50.4,-1.67106
50.45,-1.805663
50.5,-1.924127
50.55,-1.913018
50.6,-1.769566
50.65,-1.534727
50.7,-1.325912
50.75,-1.135076
50.8,-1.207714
50.85,-1.39765
50.9,-1.502072
50.95,-1.571372
51,-1.657513
51.05,-1.792519
51.1,-1.732388
51.15,-1.577676
51.2,-1.67066
51.25,-1.838642
51.3,-1.980906
51.35,-1.967968
51.4,-1.84729
51.45,-1.699619
51.5,-1.478424
51.55,-1.389635
51.6,-1.529796
51.65,-1.768736
51.7,-2.081251
51.75,-1.878767
51.8,-1.679052
51.85,-1.596344
51.9,-1.498318
51.95,-1.575542
52,-1.747292
52.05,-2.045558
52.1,-2.037683
52.15,-1.674313
52.2,-1.553771
52.25,-1.526997
52.3,-1.412828
52.35,-1.32298
52.4,-1.360839
52.45,-1.597735
52.5,-1.556827
52.55,-1.575103
52.6,-1.669424
52.65,-1.432965
52.7,-1.02116
52.75,-0.4436577
52.8,0.0592295
52.85,0.5197669
52.9,1.440927
52.95,2.702025
53,3.970429
53.05,4.773939
53.1,4.738226
53.15,4.210009
53.2,2.970268
53.25,1.563156
53.3,0.6052089
53.35,-6.210039E-02
53.4,-0.6648591
53.45,-1.162589
53.5,-1.506599
53.55,-1.652632
53.6,-1.640691
53.65,-1.556665
53.7,-1.501814
53.75,-1.556971
53.8,-1.620617
53.85,-1.647834
53.9,-1.607534
53.95,-1.566448
54,-1.477073
54.05,-1.582415
54.1,-1.846362
54.15,-2.010547
54.2,-2.103182
54.25,-1.942728
54.3,-1.847697
54.35,-1.856216
54.4,-1.841146
54.45,-1.884517
54.5,-1.804252
54.55,-1.562024
54.6,-1.377384
54.65,-1.344267
54.7,-1.453234
54.75,-1.499942
54.8,-1.444218
54.85,-1.377487
54.9,-1.268403
54.95,-1.164591
55,-1.143262
55.05,-1.239815
55.1,-1.233462
55.15,-1.203529
55.2,-1.139982
55.25,-1.081382
55.3,-0.872194
55.35,-0.5708035
55.4,-0.4801798
55.45,-0.5002937
55.5,-0.5397575
55.55,-0.6030016
55.6,-0.7412989
55.65,-0.8397543
55.7,-0.4974397
55.75,-0.0834163
55.8,0.1465945
55.85,0.4452722
55.9,0.6489313
55.95,0.6955644
56,0.5542432
56.05,0.5329083
56.1,0.7599731
56.15,0.9279287
56.2,1.030736
56.25,1.279048
56.3,1.579808
56.35,1.815544
56.4,1.726868
56.45,1.658541
56.5,1.815249
56.55,1.96818
56.6,1.988181
56.65,2.014267
56.7,2.150424
56.75,2.447006
56.8,2.783469
56.85,3.178091
56.9,3.414826
56.95,3.567018
57,3.801896
57.05,4.005208
57.1,4.263394
57.15,4.682701
57.2,5.038085
57.25,5.227385
57.3,5.442131
57.35,5.817416
57.4,6.131233
57.45,6.384314
57.5,6.80758
57.55,7.268542
57.6,7.490239
57.65,7.636722
57.7,7.853917
57.75,8.13656
57.8,8.601171
57.85,9.229439
57.9,9.780491
57.95,10.31236
58,10.72068
58.05,10.94728
58.1,11.20278
58.15,11.562
58.2,12.0301
58.25,12.50355
58.3,13.15616
58.35,14.04488
58.4,14.79243
58.45,15.45747
58.5,16.29074
58.55,17.10896
58.6,17.7154
58.65,18.03575
58.7,18.36312
58.75,18.71838
58.8,19.18668
58.85,20.04743
58.9,21.19248
58.95,22.38229
59,23.3441
59.05,24.14448
59.1,25.03387
59.15,25.71854
59.2,26.51816
59.25,27.43002
59.3,28.34104
59.35,29.18518
59.4,30.22788
59.45,31.13919
59.5,32.22862
59.55,33.39033
59.6,34.46765
59.65,35.23474
59.7,35.9748
59.75,36.86564
59.8,37.92413
59.85,38.92117
59.9,40.21972
59.95,41.58471
60,42.87645
60.05,44.17561
60.1,45.48361
60.15,46.91932
60.2,48.38641
60.25,49.77952
60.3,51.13806
60.35,52.54165
60.4,54.00786
60.45,55.40519
60.5,56.9552
60.55,59.01745
60.6,60.68143
60.65,61.9873
60.7,63.31966
60.75,64.6506
60.8,66.05819
60.85,67.50092
60.9,69.53627
60.95,71.56049
61,73.15714
61.05,74.46884
61.1,75.58947
61.15,76.98648
61.2,78.77298
61.25,80.9232
61.3,83.33391
61.35,85.50499
61.4,87.25792
61.45,88.85778
61.5,90.59315
61.55,92.33705
61.6,94.10208
61.65,96.09873
61.7,98.54754
61.75,100.4215
61.8,102.1744
61.85,104.4101
61.9,106.1865
61.95,107.6241
62,109.8314
62.05,112.0259
62.1,114.0705
62.15,115.4548
62.2,117.5068
62.25,119.1222
62.3,120.7467
62.35,123.3082
62.4,126.0376
62.45,128.3523
62.5,130.4211
62.55,132.4067
62.6,134.4815
62.65,136.034
62.7,138.0159
62.75,140.2228
62.8,141.6943
62.85,143.431
62.9,144.6168
62.95,146.0244
63,147.9445
63.05,150.1115
63.1,152.3258
63.15,154.5818
63.2,156.6179
63.25,158.089
63.3,159.7141
63.35,162.3919
63.4,165.1452
63.45,167.3069
63.5,169.7526
63.55,171.437
63.6,172.6546
63.65,173.9656
63.7,175.5631
63.75,177.2796
63.8,179.3456
63.85,180.8643
63.9,182.8301
63.95,184.6692
64,186.8431
64.05,188.3643
64.1,189.8658
64.15,191.4375
64.2,192.6827
64.25,193.1168
64.3,194.3235
64.35,195.5626
64.4,196.9705
64.45,198.6374
64.5,200.4606
64.55,202.0342
64.6,203.6263
64.65,204.5923
64.7,205.6843
64.75,206.9786
64.8,207.9414
64.85,208.968
64.9,210.4812
64.95,212.4096
65,214.213
65.05,214.6678
65.1,215.5763
65.15,215.9589
65.2,215.8611
65.25,216.4833
65.3,217.9542
65.35,219.2603
65.4,219.9128
65.45,220.3596
65.5,221.1006
65.55,221.1905
65.6,221.9692
65.65,223.3253
65.7,224.9674
65.75,225.7083
65.8,225.6716
65.85,225.7425
65.9,225.6405
65.95,226.3764
66,227.4943
66.05,228.4197
66.1,229.031
66.15,229.1654
66.2,229.065
66.25,229.0491
66.3,229.3199
66.35,229.3749
66.4,228.6553
66.45,227.7155
66.5,226.842
66.55,226.2004
66.6,225.7838
66.65,226.0442
66.7,226.9276
66.75,227.7907
66.8,228.2045
66.85,228.0896
66.9,227.9945
66.95,227.9186
67,227.6704
67.05,227.5763
67.1,227.4374
67.15,227.2691
67.2,226.7018
67.25,225.9338
67.3,225.5808
67.35,225.8028
67.4,225.7895
67.45,224.8419
67.5,223.5813
67.55,222.5235
67.6,221.413
67.65,220.56
67.7,220.1709
67.75,219.7257
67.8,218.9277
67.85,218.4916
67.9,218.5485
67.95,218.4879
68,218.1897
68.05,217.3168
68.1,216.0679
68.15,214.8662
68.2,213.8533
68.25,212.8945
68.3,211.3853
68.35,209.6513
68.4,208.0454
68.45,207.246
68.5,207.7714
68.55,208.4481
68.6,208.2918
68.65,207.1267
68.7,205.3155
68.75,203.1481
68.8,201.3222
68.85,200.3503
68.9,199.7255
68.95,198.5652
69,197.1563
69.05,195.6746
69.1,194.2981
69.15,192.6931
69.2,191.9438
69.25,191.8991
69.3,191.8504
69.35,191.5999
69.4,190.9654
69.45,189.4055
69.5,187.5401
69.55,185.6015
69.6,183.8041
69.65,182.7517
69.7,182.3502
69.75,182.6992
69.8,182.8169
69.85,181.9781
69.9,180.7221
69.95,179.0268
70,177.1231
70.05,175.3647
70.1,174.1139
70.15,174.0511
70.2,173.8371
70.25,173.187
70.3,172.1384
70.35,170.9651
70.4,169.1981
70.45,166.659
70.5,164.0156
70.55,161.8902
70.6,160.1835
70.65,158.9904
70.7,158.4337
70.75,158.8503
70.8,158.8305
70.85,157.533
70.9,155.9938
70.95,154.5324
71,152.8533
71.05,151.3336
71.1,150.2944
71.15,149.3592
71.2,148.3565
71.25,147.2024
71.3,146.2569
71.35,144.7752
71.4,143.7936
71.45,142.9736
71.5,141.7177
71.55,140.6414
71.6,139.2273
71.65,138.0796
71.7,137.0477
71.75,135.5726
71.8,133.9093
71.85,132.4284
71.9,131.0209
71.95,130.4288
72,130.3105
72.05,130.6314
72.1,130.1607
72.15,129.0022
72.2,128.002
72.25,127.9318
72.3,127.0301
72.35,125.7757
72.4,124.0121
72.45,122.0884
72.5,119.9962
72.55,118.9312
72.6,118.0996
72.65,117.2308
72.7,116.2999
72.75,115.6264
72.8,114.9518
72.85,113.3046
72.9,111.6027
72.95,110.5961
73,109.2706
73.05,108.8552
73.1,109.3248
73.15,109.1176
73.2,108.6185
73.25,108.1289
73.3,106.9415
73.35,105.6466
73.4,104.1222
73.45,102.8823
73.5,101.7627
73.55,100.5659
73.6,99.69347
73.65,98.31378
73.7,97.22833
73.75,96.61015
73.8,95.69647
73.85,94.97231
73.9,93.66688
73.95,92.86507
74,91.85616
74.05,91.20139
74.1,90.64836
74.15,89.36872
74.2,88.6756
74.25,88.02135
74.3,86.88758
74.35,85.98022
74.4,85.00346
74.45,84.23125
74.5,83.2098
74.55,82.93517
74.6,83.11636
74.65,82.39075
74.7,80.85329
74.75,79.67183
74.8,78.65585
74.85,77.68555
74.9,77.49867
74.95,77.83189
75,77.83995
75.05,77.2758
75.1,76.06729
75.15,74.61974
75.2,72.75031
75.25,71.08712
75.3,69.75058
75.35,69.52715
75.4,69.72975
75.45,69.94862
75.5,69.92328
75.55,68.84766
75.6,67.44424
75.65,66.32052
75.7,65.30541
75.75,64.8133
75.8,63.91128
75.85,63.13245
75.9,62.76756
75.95,62.15836
76,62.08574
76.05,62.0844
76.1,61.30425
76.15,60.04303
76.2,58.92813
76.25,58.42757
76.3,58.31265
76.35,58.09488
76.4,57.52311
76.45,56.66205
76.5,55.36526
76.55,54.15078
76.6,53.48206
76.65,53.5417
76.7,53.50323
76.75,53.52716
76.8,53.1372
76.85,52.49429
76.9,51.78673
76.95,51.28258
77,51.13543
77.05,51.07751
77.1,50.4159
77.15,49.81786
77.2,49.32261
77.25,48.57731
77.3,48.2289
77.35,48.17831
77.4,47.62433
77.45,46.50827
77.5,45.21497
77.55,44.24085
77.6,43.61814
77.65,43.35413
77.7,43.57512
77.75,43.76865
77.8,43.51957
77.85,43.118
77.9,42.69736
77.95,42.24213
78,41.7005
78.05,41.22541
78.1,40.59311
78.15,39.82741
78.2,39.48121
78.25,39.3967
78.3,39.15041
78.35,38.62747
78.4,38.16733
78.45,37.73932
78.5,37.0665
78.55,36.39502
78.6,35.77615
78.65,34.96761
78.7,34.52748
78.75,34.73517
78.8,35.11551
78.85,34.98377
78.9,34.44676
78.95,33.76233
79,32.99169
79.05,32.28042
79.1,32.10606
79.15,32.10209
79.2,31.56168
79.25,30.86731
79.3,30.53813
79.35,30.35974
79.4,30.34849
79.45,30.13273
79.5,30.03662
79.55,29.77971
79.6,29.34207
79.65,29.19212
79.7,29.10307
79.75,28.73776
79.8,28.21813
79.85,27.70065
79.9,27.37754
79.95,27.34967
80,27.5767
80.05,27.84118
80.1,27.75384
80.15,27.48696
80.2,26.92087
80.25,26.29
80.3,25.57984
80.35,25.03741
80.4,24.8012
80.45,24.53913
80.5,24.35126
80.55,24.11192
80.6,24.11407
80.65,24.12225
80.7,24.0257
80.75,23.97123
80.8,23.84261
80.85,23.55126
80.9,23.45915
80.95,23.32974
81,23.30108
81.05,23.25752
81.1,22.92393
81.15,22.62383
81.2,22.32743
81.25,22.07899
81.3,21.88923
81.35,21.83326
81.4,21.94241
81.45,22.15359
81.5,22.10103
81.55,22.03122
81.6,22.02538
81.65,21.82865
81.7,21.46039
81.75,21.12337
81.8,20.74161
81.85,20.44973
81.9,20.43854
81.95,20.38007
82,20.43219
82.05,20.22577
82.1,20.1764
82.15,20.305
82.2,20.26216
82.25,20.10666
82.3,20.11536
82.35,19.99597
82.4,20.20031
82.45,20.0848
82.5,20.01871
82.55,19.52004
82.6,19.555
82.65,19.29675
82.7,19.49094
82.75,19.40491
82.8,19.21984
82.85,19.01594
82.9,18.99957
82.95,19.37019
83,20.04828
83.05,19.86339
83.1,20.05457
83.15,19.67632
83.2,19.58693
83.25,19.62801
83.3,19.87934
83.35,20.38993
83.4,20.39417
83.45,20.16537
83.5,20.16384
83.55,19.90271
83.6,19.71557
83.65,19.31726
83.7,19.20592
83.75,19.21865
83.8,19.34669
83.85,19.48657
83.9,19.83225
83.95,19.62924
84,19.38496
84.05,19.38633
84.1,19.654
84.15,19.88678
84.2,19.95645
84.25,19.86953
84.3,19.97699
84.35,19.86239
84.4,19.91746
84.45,20.19524
84.5,20.46168
84.55,20.61288
84.6,20.80514
84.65,21.00773
84.7,20.99703
84.75,20.84946
84.8,20.85047
84.85,21.18514
84.9,21.55625
84.95,21.83869
85,21.94351
85.05,21.61347
85.1,21.32762
85.15,21.26502
85.2,21.07642
85.25,21.18171
85.3,21.42345
85.35,21.4731
85.4,21.4425
85.45,21.47655
85.5,21.5605
85.55,21.73076
85.6,21.83937
85.65,21.98347
85.7,22.07893
85.75,22.28285
85.8,22.49944
85.85,22.85237
85.9,23.32477
85.95,23.67286
86,23.68952
86.05,23.50578
86.1,23.36629
86.15,23.25507
86.2,22.98108
86.25,23.00457
86.3,23.34567
86.35,23.67521
86.4,24.08637
86.45,24.36505
86.5,24.43061
86.55,24.35602
86.6,24.19631
86.65,24.29404
86.7,24.55605
86.75,24.49956
86.8,24.37283
86.85,24.22409
86.9,24.24636
86.95,24.55344
87,24.90255
87.05,25.12604
87.1,25.31372
87.15,25.44936
87.2,25.59124
87.25,25.61771
87.3,25.66954
87.35,25.87296
87.4,26.09756
87.45,26.2026
87.5,26.32863
87.55,26.37173
87.6,26.33087
87.65,26.41659
87.7,26.59452
87.75,26.59438
87.8,26.37965
87.85,26.18848
87.9,26.31091
87.95,26.74659
88,27.42554
88.05,27.89885
88.1,27.93999
88.15,27.76501
88.2,27.60379
88.25,27.52624
88.3,27.41552
88.35,27.53515
88.4,27.91021
88.45,28.34495
88.5,28.88733
88.55,29.47585
88.6,29.66758
88.65,29.70619
88.7,29.82955
88.75,29.89347
88.8,29.90648
88.85,29.96815
88.9,29.86511
88.95,29.79269
89,29.97599
89.05,30.37685
89.1,30.60908
89.15,30.49591
89.2,30.29249
89.25,30.06931
89.3,29.99541
89.35,30.2865
89.4,30.60431
89.45,30.64344
89.5,30.35573
89.55,30.05339
89.6,30.00952
89.65,30.4461
89.7,30.98375
89.75,31.4485
89.8,31.62491
89.85,31.73517
89.9,31.80138
89.95,31.82304
90,31.70045
90.05,31.4674
90.1,31.06513
90.15,31.17191
90.2,31.33112
90.25,31.67752
90.3,32.02702
90.35,32.20282
90.4,32.23558
90.45,32.24817
90.5,32.05294
90.55,31.98962
90.6,31.69009
90.65,31.77265
90.7,32.10136
90.75,32.35824
90.8,32.39028
90.85,32.45795
90.9,32.30716
90.95,32.28026
91,32.15756
91.05,32.05251
91.1,31.82792
91.15,31.77657
91.2,31.73642
91.25,32.11514
91.3,32.40508
91.35,32.70135
91.4,32.91436
91.45,32.85891
91.5,32.86981
91.55,32.79616
91.6,32.65914
91.65,32.93563
91.7,33.21751
91.75,33.56427
91.8,33.58273
91.85,33.30799
91.9,32.81715
91.95,32.37833
92,32.02334
92.05,31.62062
92.1,31.34288
92.15,31.35129
92.2,31.26977
92.25,31.56242
92.3,31.8123
92.35,32.41363
92.4,32.68917
92.45,32.72577
92.5,32.36535
92.55,32.14932
92.6,32.10165
92.65,32.0681
92.7,32.06079
92.75,31.83282
92.8,31.70869
92.85,31.52206
92.9,31.34767
92.95,31.70172
93,32.00752
93.05,32.18479
93.1,32.14132
93.15,31.82968
93.2,31.48487
93.25,30.67403
93.3,30.14429
93.35,30.12987
93.4,30.06411
93.45,30.21727
93.5,30.42314
93.55,30.75607
93.6,30.81124
93.65,30.54812
93.7,30.2355
93.75,30.03294
93.8,29.63256
93.85,29.38223
93.9,29.16472
93.95,29.14968
94,29.08143
94.05,29.20156
94.1,29.20643
94.15,29.27672
94.2,29.23979
94.25,29.05345
94.3,29.00525
94.35,28.94445
94.4,28.84172
94.45,28.80154
94.5,28.21211
94.55,27.88085
94.6,27.6855
94.65,27.61895
94.7,27.63064
94.75,27.86367
94.8,27.86274
94.85,27.49799
94.9,26.75104
94.95,26.38381
95,26.22045
95.05,26.10488
95.1,26.21771
95.15,26.54462
95.2,26.26494
95.25,25.87626
95.3,25.54955
95.35,25.39148
95.4,25.22086
95.45,25.09178
95.5,25.024
95.55,24.92588
95.6,24.63943
95.65,24.33283
95.7,24.12487
95.75,23.92898
95.8,23.51194
95.85,23.2866
95.9,23.23626
95.95,23.47602
96,23.58218
96.05,23.44747
96.1,23.23597
96.15,22.9642
96.2,22.73905
96.25,22.73295
96.3,22.57062
96.35,22.26341
96.4,21.79788
96.45,21.44025
96.5,21.1681
96.55,21.18654
96.6,21.49852
96.65,21.59821
96.7,21.2647
96.75,20.70124
96.8,20.26508
96.85,19.99591
96.9,19.85856
96.95,19.92556
97,19.84756
97.05,19.32656
97.1,18.83912
97.15,18.52067
97.2,18.45914
97.25,18.50221
97.3,18.33453
97.35,17.98243
97.4,17.74777
97.45,17.68553
97.5,17.75443
97.55,17.7396
97.6,17.53665
97.65,17.22456
97.7,16.69486
97.75,16.3955
97.8,16.59328
97.85,16.70634
97.9,16.64165
97.95,16.49249
98,16.15376
98.05,15.7991
98.1,15.53895
98.15,15.51106
98.2,15.49556
98.25,15.11306
98.3,14.42967
98.35,13.75317
98.4,13.39557
98.45,13.39504
98.5,13.71903
98.55,14.04015
98.6,13.98663
98.65,13.6231
98.7,13.16129
98.75,12.95102
98.8,13.10575
98.85,13.26561
98.9,13.40264
98.95,13.33113
99,12.845
99.05,12.12663
99.1,11.58254
99.15,11.53404
99.2,11.72731
99.25,11.66217
99.3,11.45973
99.35,11.10369
99.4,10.61073
99.45,10.3257
99.5,10.3277
99.55,10.39524
99.6,10.45237
99.65,10.31818
99.7,10.14592
99.75,9.86659
99.8,9.467244
99.85,9.020395
99.9,8.55485
99.95,8.322599
100,8.442799
100.05,8.718284
100.1,9.01611
100.15,9.23596
100.2,9.310616
100.25,9.320269
100.3,9.32728
100.35,9.270563
100.4,9.006524
100.45,8.578362
100.5,8.150964
100.55,7.990862
100.6,7.882127
100.65,7.817758
100.7,7.673418
100.75,7.372125
100.8,7.144372
100.85,7.05915
100.9,7.005909
100.95,6.958611
101,6.871069
101.05,6.517479
101.1,6.182786
101.15,5.82782
101.2,5.808907
101.25,5.777881
101.3,5.634626
101.35,5.620697
101.4,5.759591
101.45,5.639596
101.5,5.552602
101.55,5.497379
101.6,5.455544
101.65,5.260962
101.7,5.269122
101.75,5.343876
101.8,5.324668
101.85,5.011331
101.9,4.766868
101.95,4.476654
102,4.13289
102.05,4.048348
102.1,4.097422
102.15,4.185979
102.2,4.337534
102.25,4.254055
102.3,4.186757
102.35,3.907836
102.4,3.922961
102.45,3.849882
102.5,3.950672
102.55,3.877099
102.6,3.630987
102.65,3.384912
102.7,3.271333
102.75,3.244266
102.8,3.316226
102.85,3.114389
102.9,3.272906
102.95,3.163922
103,3.033936
103.05,2.880039
103.1,2.664799
103.15,2.618224
103.2,2.562398
103.25,2.484073
103.3,2.505193
103.35,2.154539
103.4,1.980713
103.45,1.861568
103.5,1.657211
103.55,1.537813
103.6,1.394741
103.65,1.325666
103.7,1.424528
103.75,1.492436
103.8,1.802196
103.85,1.990795
103.9,2.000555
103.95,1.953322
104,1.941229
104.05,1.816756
104.1,1.876728
104.15,2.024124
104.2,2.316673
104.25,2.251111
104.3,2.037333
104.35,1.795331
104.4,1.625347
104.45,1.256687
104.5,0.952736
104.55,0.6916735
104.6,0.5676575
104.65,0.4889162
104.7,0.7362738
104.75,0.9762735
104.8,0.9873906
104.85,0.927102
104.9,0.7920357
104.95,0.7735144
105,0.7951545
105.05,0.7245446
105.1,0.6698731
105.15,0.5762136
105.2,0.6070919
105.25,0.8277595
105.3,0.8322223
105.35,0.882297
105.4,0.9447722
105.45,0.9605733
105.5,1.046124
105.55,1.139662
105.6,1.278472
105.65,1.356811
105.7,1.41691
105.75,1.555836
105.8,1.610351
105.85,1.380388
105.9,0.9492272
105.95,0.4826466
106,0.1981978
106.05,0.1332638
106.1,0.3082043
106.15,0.5547797
106.2,0.6622176
106.25,0.6176965
106.3,0.420765
106.35,0.1370904
106.4,-0.1235369
106.45,3.685192E-02
106.5,0.3916191
106.55,0.5901225
106.6,0.6112307
106.65,0.4725065
106.7,0.2811706
106.75,0.2174322
106.8,0.3259657
106.85,0.5357389
106.9,0.5403197
106.95,0.4699431
107,0.4414074
107.05,0.4252836
107.1,0.5632536
107.15,0.6683397
107.2,0.6230773
107.25,0.4586531
107.3,0.2944981
107.35,0.1424138
107.4,-3.207469E-02
107.45,-0.1900181
107.5,-0.3282493
107.55,-0.5316438
107.6,-0.6053727
107.65,-0.472259
107.7,-0.289525
107.75,-0.2140059
107.8,-0.2256418
107.85,-0.1948404
107.9,-0.195421
107.95,-0.3011418
108,-0.3770065
108.05,-0.373909
108.1,-0.3891515
108.15,-0.3733062
108.2,-0.1923798
108.25,-3.002364E-02
108.3,-0.1130668
108.35,-0.3380168
108.4,-0.342718
108.45,0.1382816
108.5,0.6082624
108.55,0.7745109
108.6,0.7807519
108.65,0.5039082
108.7,0.1458449
108.75,-6.242102E-02
108.8,-2.601331E-02
108.85,0.181148
108.9,0.2657183
108.95,0.4595718
109,0.7389882
109.05,0.8627582
109.1,0.8154689
109.15,0.4604348
109.2,-7.239097E-02
109.25,-0.4593149
109.3,-0.7018345
109.35,-0.735295
109.4,-0.3448283
109.45,0.1509598
109.5,0.4165761
109.55,0.5551674
109.6,0.5411174
109.65,0.6359109
109.7,0.8311473
109.75,0.9642528
109.8,0.976249
109.85,0.7058322
109.9,0.2120755
109.95,6.241542E-02
110,4.090052E-02
110.05,0.3699934
110.1,0.7963241
110.15,0.7333664
110.2,0.3762929
110.25,0.1957497
110.3,3.872064E-02
110.35,-8.710312E-02
110.4,-5.835803E-02
110.45,0.1627066
110.5,0.3828222
110.55,0.3982503
110.6,0.4226256
110.65,0.7429516
110.7,0.5507427
110.75,-7.976402E-02
110.8,-0.2927734
110.85,-0.3763351
110.9,-0.397068
110.95,-0.4952494
111,-0.5188446
111.05,-0.2782808
111.1,-9.931865E-02
111.15,0.3019044
111.2,0.7292653
111.25,0.6256834
111.3,0.33968
111.35,-0.2482595
111.4,-0.7815097
111.45,-1.096372
111.5,-1.040706
111.55,-0.7139835
111.6,-0.4259828
111.65,-0.3436591
111.7,-0.2047187
111.75,-0.1711379
111.8,-0.294908
111.85,-0.2212504
111.9,-0.1517373
111.95,7.300836E-02
112,0.8019893
112.05,2.450559
112.1,3.710864
112.15,5.237484
112.2,8.015784
112.25,11.69331
112.3,18.05924
112.35,25.33539
112.4,32.4466
112.45,40.81847
112.5,49.78855
112.55,63.3794
112.6,81.96321
112.65,99.62978
112.7,114.4538
112.75,123.4539
112.8,128.2965
112.85,132.3706
112.9,136.9261
112.95,143.6876
113,149.7769
113.05,147.3645
113.1,143.6796
113.15,139.4005
113.2,136.7199
113.25,134.4901
113.3,130.4179
113.35,123.5629
113.4,111.6194
113.45,96.42559
113.5,83.87252
113.55,74.20314
113.6,66.75909
113.65,61.63759
113.7,56.90466
113.75,51.4835
113.8,45.01931
113.85,40.01562
113.9,35.35217
113.95,31.51333
114,27.99949
114.05,24.72904
114.1,20.02291
114.15,16.66297
114.2,14.75162
114.25,14.02729
114.3,13.86043
114.35,14.89816
114.4,14.44858
114.45,11.94597
114.5,9.039155
114.55,6.954636
114.6,5.230277
114.65,4.534314
114.7,4.613976
114.75,4.354885
114.8,3.383601
114.85,2.624099
114.9,1.839576
114.95,1.74556
115,2.094431
115.05,2.715893
115.1,3.293798
115.15,3.516264
115.2,3.605624
115.25,3.438571
115.3,2.596552
115.35,1.61411
115.4,0.5658872
115.45,-0.1754532
115.5,-0.1175892
115.55,0.5211254
115.6,0.9922708
115.65,1.138571
115.7,1.006185
115.75,0.759723
115.8,0.6180782
115.85,0.8278759
115.9,1.293841
115.95,1.482701
116,1.465904
116.05,1.268903
116.1,0.6104906
116.15,-0.4810896
116.2,-1.547722
116.25,-2.184812
116.3,-2.315919
116.35,-2.150372
116.4,-1.996985
116.45,-2.027158
116.5,-2.06049
116.55,-1.866379
116.6,-1.70449
116.65,-1.746731
116.7,-2.039466
116.75,-2.383152
116.8,-2.518112
116.85,-2.459411
116.9,-2.411802
116.95,-2.371487
117,-2.346863
117.05,-2.300196
117.1,-2.220953
117.15,-2.31108
117.2,-2.529015
117.25,-2.548876
117.3,-2.257476
117.35,-2.07583
117.4,-2.168154
117.45,-2.517502
117.5,-3.093648
117.55,-3.59226
117.6,-3.728669
117.65,-3.602723
117.7,-3.541206
117.75,-3.673654
117.8,-3.804302
117.85,-3.864983
117.9,-3.909315
117.95,-3.908569
118,-3.876686
118.05,-3.678254
118.1,-3.394469
118.15,-3.293908
118.2,-3.398752
118.25,-3.540858
118.3,-3.652895
118.35,-3.795594
118.4,-3.879744
118.45,-3.833943
118.5,-3.832206
118.55,-3.846468
118.6,-3.617234
118.65,-3.326137
118.7,-3.239588
118.75,-3.459664
118.8,-3.69717
118.85,-3.881455
118.9,-4.099367
118.95,-4.134169
119,-4.011296
119.05,-4.013587
119.1,-4.161677
119.15,-4.429815
119.2,-4.649208
119.25,-4.78608
119.3,-4.745803
119.35,-4.409194
119.4,-3.994916
119.45,-3.64944
119.5,-3.530918
119.55,-3.64976
119.6,-3.83709
119.65,-4.05884
119.7,-4.207918
119.75,-4.328665
119.8,-4.492693
119.85,-4.671915
119.9,-4.748254
119.95,-4.693709
120,-4.562126
120.05,-4.365383
120.1,-4.28197
120.15,-4.53135
120.2,-4.873786
120.25,-5.057663
120.3,-5.078341
120.35,-5.030373
120.4,-4.909485
120.45,-4.686009
120.5,-4.61018
120.55,-4.571296
120.6,-4.399146
120.65,-4.310752
120.7,-4.370363
120.75,-4.487935
120.8,-4.588004
120.85,-4.654342
120.9,-4.610579
120.95,-4.456741
121,-4.386767
121.05,-4.558082
121.1,-4.757505
121.15,-4.94353
121.2,-5.045548
121.25,-5.036652
121.3,-4.948312
121.35,-4.90032
121.4,-4.88153
121.45,-4.929954
121.5,-4.958825
121.55,-4.991135
121.6,-5.064497
121.65,-5.178409
121.7,-5.018252
121.75,-4.80559
121.8,-4.704871
121.85,-4.746665
121.9,-4.905186
121.95,-5.163729
122,-5.303559
122.05,-5.262301
122.1,-4.977507
122.15,-4.917933
122.2,-4.882865
122.25,-4.851461
122.3,-4.948401
122.35,-5.143812
122.4,-5.203842
122.45,-5.294015
122.5,-5.218015
122.55,-5.246946
122.6,-5.244137
122.65,-5.298149
122.7,-5.408073
122.75,-5.551594
122.8,-5.70903
122.85,-5.848119
122.9,-5.81949
122.95,-5.725236
123,-5.2491
123.05,-5.03738
123.1,-5.000908
123.15,-5.214872
123.2,-5.646071
123.25,-5.869858
123.3,-5.911232
123.35,-5.818887
123.4,-5.564956
123.45,-5.449973
123.5,-5.268761
123.55,-5.222719
123.6,-5.114768
123.65,-4.945184
123.7,-4.933201
123.75,-5.144529
123.8,-5.341254
123.85,-5.659026
123.9,-5.858319
123.95,-5.975317
124,-5.884368
124.05,-5.801649
124.1,-5.808564
124.15,-5.750291
124.2,-5.517264
124.25,-5.43538
124.3,-5.218511
124.35,-5.264411
124.4,-5.494103
124.45,-5.776417
124.5,-5.996589
124.55,-6.062312
124.6,-6.058104
124.65,-6.074443
124.7,-5.973235
124.75,-6.046218
124.8,-6.019625
124.85,-5.857245
124.9,-5.799603
124.95,-5.750506
125,-5.704649
125.05,-5.761705
125.1,-5.856909
125.15,-5.974129
125.2,-6.020878
125.25,-5.95963
125.3,-5.850889
125.35,-5.751606
125.4,-5.788862
125.45,-6.012598
125.5,-6.269986
125.55,-6.470183
125.6,-6.355472
125.65,-6.128916
125.7,-5.902563
125.75,-5.791602
125.8,-5.825446
125.85,-6.005937
125.9,-6.045011
125.95,-5.926311
126,-5.780998
126.05,-5.894647
126.1,-6.037687
126.15,-6.184836
126.2,-6.291019
126.25,-6.227377
126.3,-5.892656
126.35,-5.692612
126.4,-5.668481
126.45,-5.788549
126.5,-5.963657
126.55,-6.241446
126.6,-6.348866
126.65,-6.321586
126.7,-6.315874
126.75,-6.246929
126.8,-6.09921
126.85,-6.094378
126.9,-6.247169
126.95,-6.436651
127,-6.563775
127.05,-6.724519
127.1,-6.780161
127.15,-6.563449
127.2,-6.367125
127.25,-6.354494
127.3,-6.39677
127.35,-6.464719
127.4,-6.479649
127.45,-6.450037
127.5,-6.416994
127.55,-6.444805
127.6,-6.459059
127.65,-6.407776
127.7,-6.318937
127.75,-6.252209
127.8,-6.281095
127.85,-6.380245
127.9,-6.501281
127.95,-6.653948
128,-6.753386
128.05,-6.663435
128.1,-6.348726
128.15,-6.076755
128.2,-6.063637
128.25,-6.235789
128.3,-6.574997
128.35,-6.908072
128.4,-7.084393
128.45,-6.990663
128.5,-6.725765
128.55,-6.586874
128.6,-6.50337
128.65,-6.470208
128.7,-6.529149
128.75,-6.622185
128.8,-6.775085
128.85,-6.845319
128.9,-6.775856
128.95,-6.70498
129,-6.684873
129.05,-6.754511
129.1,-6.817509
129.15,-6.848057
129.2,-6.908145
129.25,-6.856969
129.3,-6.812362
129.35,-6.83685
129.4,-6.885681
129.45,-6.838944
129.5,-6.702691
129.55,-6.61047
129.6,-6.613931
129.65,-6.598584
129.7,-6.667212
129.75,-6.736555
129.8,-6.750758
129.85,-6.67107
129.9,-6.601665
129.95,-6.705663
130,-6.913074
130.05,-6.998939
130.1,-7.011389
130.15,-6.898299
130.2,-6.686841
130.25,-6.460102
130.3,-6.288436
130.35,-6.278043
130.4,-6.43721
130.45,-6.631198
130.5,-6.724817
130.55,-6.622808
130.6,-6.593613
130.65,-6.670657
130.7,-6.832511
130.75,-7.033389
130.8,-7.231372
130.85,-7.322115
130.9,-7.30149
130.95,-7.153923
131,-7.185383
131.05,-7.301002
131.1,-7.185444
131.15,-6.955802
131.2,-6.921203
131.25,-6.872534
131.3,-6.815104
131.35,-6.774637
131.4,-6.863622
131.45,-6.712721
131.5,-6.496591
131.55,-6.479847
131.6,-6.415946
131.65,-6.30971
131.7,-6.294667
131.75,-6.31367
131.8,-6.415548
131.85,-6.448617
131.9,-6.591362
131.95,-6.59839
132,-6.556282
132.05,-6.609409
132.1,-6.706311
132.15,-6.746423
132.2,-6.730416
132.25,-6.626126
132.3,-6.631502
132.35,-6.740191
132.4,-6.955734
132.45,-7.077869
132.5,-6.667508
132.55,-6.286998
132.6,-6.289127
132.65,-6.476445
132.7,-6.963973
132.75,-7.256687
132.8,-7.591847
132.85,-7.453018
132.9,-6.558875
132.95,-6.026092
133,-5.78212
133.05,-6.012623
133.1,-6.513302
133.15,-6.92538
133.2,-7.402225
133.25,-7.200526
133.3,-6.947774
133.35,-7.11386
133.4,-7.154627
133.45,-6.57459
133.5,-5.840897
133.55,-5.646889
133.6,-5.476121
133.65,-5.678859
133.7,-6.293238
133.75,-6.383494
133.8,-5.952295
133.85,-5.659909
133.9,-5.734212
133.95,-5.57237
134,-5.445865
134.05,-5.878693
134.1,-6.054188
134.15,-6.077353
134.2,-6.236975
134.25,-6.375566
134.3,-6.320587
134.35,-6.372859
134.4,-6.964547
134.45,-7.025662
134.5,-6.414453
134.55,-5.910608
134.6,-5.797101
134.65,-5.810316
134.7,-6.24395
134.75,-6.841539
134.8,-7.176278
134.85,-6.949676
134.9,-6.817444
134.95,-6.760156
135,-6.252976
135.05,-5.688745
135.1,-5.763276
135.15,-6.038942
135.2,-6.288069
135.25,-6.415929
135.3,-6.353443
135.35,-6.20753
135.4,-6.061743
135.45,-6.202116
135.5,-6.503988
135.55,-6.713535
135.6,-6.759676
135.65,-6.732001
135.7,-6.723742
135.75,-6.661921
135.8,-6.64649
135.85,-6.600493
135.9,-6.800101
135.95,-7.193728
136,-7.363606
136.05,-7.352032
136.1,-7.439585
136.15,-7.46587
136.2,-7.368172
136.25,-7.029768
136.3,-6.838243
136.35,-6.798553
136.4,-6.846886
136.45,-6.689079
136.5,-6.491541
136.55,-6.31947
136.6,-6.153625
136.65,-6.041872
136.7,-5.819566
136.75,-5.434528
136.8,-5.164506
136.85,-4.745173
136.9,-4.685894
136.95,-5.227084
137,-6.045558
137.05,-6.857184
137.1,-7.315658
137.15,-7.29602
137.2,-7.144032
137.25,-7.032439
137.3,-6.979732
137.35,-7.017882
137.4,-7.04902
137.45,-6.756346
137.5,-6.278599
137.55,-5.94341
137.6,-6.047085
137.65,-6.402399
137.7,-6.350787
137.75,-5.982678
137.8,-5.622248
137.85,-5.342748
137.9,-5.466202
137.95,-5.812403
138,-6.076057
 
Alignment,On
